Notch position (nm)	Depth (microm)	rho (cm^-3)	E (V.cm^-1)
1400	0.0	-4499980610000000.0	4442.924
1400	0.0001	-4492061710000000.0	4434.79628
1400	0.000201	-4484075040000000.0	4426.60015
1400	0.000305	-4475875110000000.0	4418.19387
1400	0.000413	-4467312970000000.0	4409.42568
1400	0.000528	-4458228370000000.0	4400.13291
1400	0.000652	-4448441730000000.0	4390.13405
1400	0.000788	-4437745640000000.0	4379.22024
1400	0.000939	-4425895070000000.0	4367.14575
1400	0.001108	-4412596010000000.0	4353.61694
1400	0.0013	-4397491820000000.0	4338.27936
1400	0.001522	-4380146910000000.0	4320.70239
1400	0.001779	-4360027020000000.0	4300.36119
1400	0.002081	-4336475640000000.0	4276.61568
1400	0.002438	-4308686050000000.0	4248.68638
1400	0.002863	-4275668680000000.0	4215.62769
1400	0.003374	-4236213930000000.0	4176.29927
1400	0.00399	-4188851290000000.0	4129.33783
1400	0.004737	-4131806700000000.0	4073.13261
1400	0.005645	-4062962290000000.0	4005.81037
1400	0.006752	-3979825430000000.0	3925.23847
1400	0.008105	-3879518880000000.0	3829.05864
1400	0.009759	-3758810320000000.0	3714.76823
1400	0.011781	-3614208450000000.0	3579.87014
1400	0.014253	-3442163490000000.0	3422.11507
1400	0.017268	-3239419450000000.0	3239.85698
1400	0.020939	-3003568040000000.0	3032.52983
1400	0.025395	-2733835570000000.0	2801.22391
1400	0.030786	-2432075740000000.0	2549.28685
1400	0.03728	-2103820100000000.0	2282.79956
1400	0.045066	-1759056840000000.0	2010.69937
1400	0.054352	-1412228930000000.0	1744.29032
1400	0.065362	-1080923550000000.0	1495.96742
1400	0.078332	-783066631000000.0	1277.23921
1400	0.09351	-533178589000000.0	1096.51225
1400	0.11114	-339033792000000.0	957.39855
1400	0.131462	-200230956000000.0	858.254869
1400	0.154698	-109353558000000.0	793.175912
1400	0.181043	-55050592400000.0	753.993
1400	0.21065	-25496882600000.0	732.418746
1400	0.243621	-10858566900000.0	721.574591
1400	0.279995	-4255985750000.0	716.600852
1400	0.319738	-1538394340000.0	714.517494
1400	0.362736	-513792459000.0	713.719222
1400	0.408787	-157835789000.0	713.439415
1400	0.457605	-42822428600.0	713.350798
1400	0.508821	-7629099780.0	713.327425
1400	0.56199	3086037910.0	713.325244
1400	0.616602	6859109850.0	713.330164
1400	0.672101	8890360310.0	713.338079
1400	0.727899	10660867700.0	713.347957
1400	0.783398	12623284800.0	713.359659
1400	0.83801	15049570500.0	713.373344
1400	0.891179	18513221800.0	713.389503
1400	0.942395	24823043400.0	713.4096
1400	0.991213	39654854000.0	713.438095
1400	1.037264	79513043000.0	713.487764
1400	1.080262	188228285000.0	713.591934
1400	1.120005	470862629000.0	713.828933
1400	1.156379	1152635150000.0	714.363202
1400	1.18935	2661727940000.0	715.50098
1400	1.218957	5714260880000.0	717.744473
1400	1.245302	11354369900000.0	721.812512
1400	1.268538	20892429900000.0	728.591259
1400	1.28886	35710906700000.0	738.997789
1400	1.30649	56967891300000.0	753.779633
1400	1.321668	85289383000000.0	773.312275
1400	1.334638	120560992000000.0	797.467614
1400	1.345648	161893082000000.0	825.600609
1400	1.354934	207763765000000.0	856.654249
1400	1.36272	256281681000000.0	889.341517
1400	1.369214	305482795000000.0	922.34561
1400	1.374605	353585233000000.0	954.4878
1400	1.379061	399158066000000.0	984.834979
1400	1.382732	441194862000000.0	1012.74277
1400	1.385747	479107935000000.0	1037.8465
1400	1.388219	512670581000000.0	1060.0191
1400	1.390241	541934685000000.0	1079.31436
1400	1.391895	567144861000000.0	1095.90924
1400	1.393248	588662233000000.0	1110.05359
1400	1.394355	606903885000000.0	1122.03066
1400	1.395263	622299027000000.0	1132.1289
1400	1.39601	635260090000000.0	1140.62359
1400	1.396626	646165742000000.0	1147.76627
1400	1.397137	655352659000000.0	1153.77983
1400	1.397562	663113242000000.0	1158.85729
1400	1.397919	669697074000000.0	1163.16311
1400	1.398221	675314484000000.0	1166.83562
1400	1.398478	680141099000000.0	1169.9902
1400	1.3987	684322669000000.0	1172.7225
1400	1.398892	687979736000000.0	1175.11156
1400	1.399061	691211924000000.0	1177.22264
1400	1.399212	694101739000000.0	1179.10979
1400	1.399348	696717897000000.0	1180.81796
1400	1.399472	699118182000000.0	1182.38496
1400	1.399587	701351929000000.0	1183.84305
1400	1.399695	703462206000000.0	1185.22038
1400	1.399799	705487774000000.0	1186.54226
1400	1.3999	707464967000000.0	1187.83243
1400	1.4	709429595000000.0	1189.11249
1400	1.4	709442727000000.0	1189.11515
1400	1.4001	707476068000000.0	1190.39523
1400	1.400201	705500656000000.0	1191.68292
1400	1.400304	703488278000000.0	1192.99485
1400	1.40041	701410636000000.0	1194.34948
1400	1.400522	699238054000000.0	1195.76616
1400	1.400641	696938259000000.0	1197.26598
1400	1.400768	694475133000000.0	1198.87252
1400	1.400907	691807395000000.0	1200.61275
1400	1.40106	688887156000000.0	1202.51798
1400	1.401229	685658308000000.0	1204.6249
1400	1.401419	682054720000000.0	1206.97678
1400	1.401634	677998230000000.0	1209.62478
1400	1.40188	673396435000000.0	1212.62943
1400	1.402163	668140334000000.0	1216.0622
1400	1.402491	662101899000000.0	1220.0071
1400	1.402873	655131742000000.0	1224.56226
1400	1.403321	647057121000000.0	1229.84132
1400	1.403849	637680667000000.0	1235.97433
1400	1.404472	626780326000000.0	1243.10793
1400	1.405212	614111234000000.0	1251.40423
1400	1.406089	599410357000000.0	1261.03801
1400	1.407132	582404921000000.0	1272.19133
1400	1.408373	562825666000000.0	1285.04508
1400	1.409848	540425874000000.0	1299.76666
1400	1.4116	515006686000000.0	1316.49337
1400	1.413677	486448415000000.0	1335.31166
1400	1.416134	454746314000000.0	1356.23305
1400	1.419032	420047449000000.0	1379.16876
1400	1.422438	382683340000000.0	1403.90633
1400	1.426426	343191132000000.0	1430.09299
1400	1.431073	302315028000000.0	1457.23112
1400	1.436462	260980370000000.0	1484.69087
1400	1.442676	220235725000000.0	1511.74316
1400	1.449799	181163786000000.0	1537.61226
1400	1.457915	144768902000000.0	1561.54192
1400	1.467099	111855551000000.0	1582.8631
1400	1.477419	82915147300000.0	1601.04712
1400	1.48893	58035281400000.0	1615.72604
1400	1.501673	36833845500000.0	1626.66289
1400	1.515668	18400123400000.0	1633.65604
1400	1.530913	1196028020000.0	1636.35867
1400	1.54738	-17168177900000.0	1633.97921
1400	1.565016	-40424912800000.0	1624.79058
1400	1.583737	-74634922400000.0	1605.30303
1400	1.603435	-130030350000000.0	1568.83177
1400	1.623973	-224254343000000.0	1503.00601
1400	1.645191	-387630403000000.0	1385.55212
1400	1.66691	-670610159000000.0	1177.62165
1400	1.688935	-1151086020000000.0	814.625949
1400	1.711065	-1932167170000000.0	197.367506
1400	1.73309	-3108612470000000.0	-807.070756
1400	1.754809	-4678787630000000.0	-2337.1933
1400	1.776027	-6438335250000000.0	-4471.1727
1400	1.796565	-8008628360000000.0	-7155.40477
1400	1.816263	-9086421250000000.0	-10201.7354
1400	1.834984	-9653187650000000.0	-13375.6421
1400	1.85262	-9887723420000000.0	-16493.2803
1400	1.869087	-9967674540000000.0	-19451.2521
1400	1.884332	-9991356150000000.0	-22203.9204
1400	1.898327	-9997875550000000.0	-24734.743
1400	1.91107	-9999991950000000.0	-27040.1668
1400	1.922581	-1.00020023e+16	-29123.2221
1400	1.932901	-1.00072289e+16	-30991.3066
1400	1.942085	-1.00225483e+16	-32655.4431
1400	1.950201	-1.0064278e+16	-34130.1974
1400	1.957324	-1.01673354e+16	-35434.0687
1400	1.963538	-1.03969761e+16	-36590.1204
1400	1.968927	-1.0858916e+16	-37626.3072
1400	1.973574	-1.17009984e+16	-38574.7563
1400	1.977562	-1.3100709e+16	-39469.4931
1400	1.980968	-1.52385402e+16	-40342.8022
1400	1.983866	-1.82641765e+16	-41221.1697
1400	1.986323	-2.22660569e+16	-42122.0714
1400	1.9884	-2.72531529e+16	-43052.552
1400	1.990152	-3.31527143e+16	-44009.8392
1400	1.991627	-3.98224974e+16	-44983.5656
1400	1.992868	-4.70726421e+16	-45958.8094
1400	1.993911	-5.46912877e+16	-46919.1563
1400	1.994788	-6.24686682e+16	-47849.2086
1400	1.995528	-7.02160693e+16	-48736.2636
1400	1.996151	-7.77779788e+16	-49571.1465
1400	1.996679	-8.50374784e+16	-50348.3468
1400	1.997127	-9.19160939e+16	-51065.6778
1400	1.997509	-9.83698492e+16	-51723.6766
1400	1.997837	-1.04383272e+17	-52324.9193
1400	1.99812	-1.09962771e+17	-52873.3665
1400	1.998366	-1.15130373e+17	-53373.8062
1400	1.998581	-1.19918353e+17	-53831.4177
1400	1.998771	-1.24364998e+17	-54251.4569
1400	1.99894	-1.28511481e+17	-54639.048
1400	1.999093	-1.32399751e+17	-54999.0619
1400	1.999232	-1.36071242e+17	-55336.0618
1400	1.999359	-1.39566259e+17	-55654.2985
1400	1.999478	-1.42923882e+17	-55957.7424
1400	1.99959	-1.46182285e+17	-56250.1433
1400	1.999696	-1.49379422e+17	-56535.1132
1400	1.999799	-1.52554057e+17	-56816.2326
1400	1.9999	-1.5574719e+17	-57097.1827
1400	2.0	-1.59004005e+17	-57378.9689
1400	2.0	9.99979441e+16	-57381.1785
1400	2.0001	9.99979053e+16	-57200.2471
1400	2.0002	9.99978656e+16	-57018.8178
1400	2.000301	9.99978249e+16	-56835.9209
1400	2.000404	9.99977828e+16	-56650.6068
1400	2.000508	9.99977392e+16	-56461.9218
1400	2.000615	9.99976937e+16	-56268.8877
1400	2.000724	9.9997646e+16	-56070.4825
1400	2.000838	9.99975958e+16	-55865.6224
1400	2.000955	9.99975427e+16	-55653.1449
1400	2.001077	9.99974861e+16	-55431.7914
1400	2.001205	9.99974256e+16	-55200.1912
1400	2.00134	9.99973606e+16	-54956.8445
1400	2.001482	9.99972903e+16	-54700.1067
1400	2.001632	9.99972139e+16	-54428.1719
1400	2.001792	9.99971305e+16	-54139.0576
1400	2.001962	9.9997039e+16	-53830.5904
1400	2.002145	9.99969381e+16	-53500.3924
1400	2.002341	9.99968262e+16	-53145.8702
1400	2.002552	9.99967016e+16	-52764.2061
1400	2.002779	9.99965621e+16	-52352.3526
1400	2.003026	9.99964054e+16	-51907.0319
1400	2.003292	9.99962285e+16	-51424.7396
1400	2.003581	9.9996028e+16	-50901.7554
1400	2.003895	9.99957998e+16	-50334.161
1400	2.004236	9.99955392e+16	-49717.8665
1400	2.004605	9.99952404e+16	-49048.6451
1400	2.005007	9.99948969e+16	-48322.1795
1400	2.005443	9.99945008e+16	-47534.1172
1400	2.005915	9.99940429e+16	-46680.1379
1400	2.006425	9.99935125e+16	-45756.0304
1400	2.006977	9.99928972e+16	-44757.7809
1400	2.007572	9.99921826e+16	-43681.6691
1400	2.008212	9.99913527e+16	-42524.372
1400	2.008898	9.99903894e+16	-41283.0728
1400	2.009631	9.99892729e+16	-39955.5719
1400	2.010414	9.99879824e+16	-38540.3968
1400	2.011245	9.99864966e+16	-37036.9066
1400	2.012124	9.99847949e+16	-35445.3878
1400	2.013052	9.99828594e+16	-33767.1371
1400	2.014026	9.99806769e+16	-32004.5256
1400	2.015046	9.99782413e+16	-30161.0426
1400	2.016107	9.99755572e+16	-28241.3142
1400	2.017207	9.99726424e+16	-26251.0939
1400	2.018342	9.99695306e+16	-24197.2242
1400	2.019509	9.99662732e+16	-22087.5681
1400	2.020701	9.99629394e+16	-19930.9114
1400	2.021914	9.99596143e+16	-17736.8365
1400	2.023142	9.9956395e+16	-15515.5728
1400	2.02438	9.99533845e+16	-13277.8263
1400	2.02562	9.99506842e+16	-11034.5933
1400	2.026858	9.99483854e+16	-8796.96667
1400	2.028086	9.99465621e+16	-6575.93706
1400	2.029299	9.99452643e+16	-4382.19937
1400	2.030491	9.99445149e+16	-2225.96796
1400	2.031658	9.9944309e+16	-116.807619
1400	2.032793	9.99446158e+16	1936.51512
1400	2.033893	9.99453837e+16	3926.15613
1400	2.034954	9.99465457e+16	5845.29051
1400	2.035974	9.99480266e+16	7688.18023
1400	2.036948	9.99497486e+16	9450.21209
1400	2.037876	9.99516367e+16	11127.9067
1400	2.038755	9.99536228e+16	12718.8999
1400	2.039586	9.99556477e+16	14221.8999
1400	2.040369	9.99576627e+16	15636.6224
1400	2.041102	9.99596296e+16	16963.7093
1400	2.041788	9.99615198e+16	18204.6324
1400	2.042428	9.99633137e+16	19361.5898
1400	2.043023	9.99649989e+16	20437.3962
1400	2.043575	9.9966569e+16	21435.3719
1400	2.044085	9.99680222e+16	22359.2346
1400	2.044557	9.99693605e+16	23212.9955
1400	2.044993	9.99705879e+16	24000.8629
1400	2.045395	9.99717105e+16	24727.1547
1400	2.045764	9.99727351e+16	25396.221
1400	2.046105	9.99736693e+16	26012.3772
1400	2.046419	9.99745205e+16	26579.8476
1400	2.046708	9.99752964e+16	27102.7209
1400	2.046974	9.99760041e+16	27584.9135
1400	2.047221	9.99766505e+16	28030.1445
1400	2.047448	9.99772419e+16	28441.9169
1400	2.047659	9.99777843e+16	28823.5075
1400	2.047855	9.99782831e+16	29177.9629
1400	2.048038	9.99787431e+16	29508.0999
1400	2.048208	9.99791687e+16	29816.5112
1400	2.048368	9.9979564e+16	30105.574
1400	2.048518	9.99799325e+16	30377.4612
1400	2.04866	9.99802775e+16	30634.1548
1400	2.048795	9.99806017e+16	30877.4601
1400	2.048923	9.99809078e+16	31109.0217
1400	2.049045	9.9981198e+16	31330.3388
1400	2.049162	9.99814744e+16	31542.7818
1400	2.049276	9.9981739e+16	31747.609
1400	2.049385	9.99819932e+16	31945.9829
1400	2.049492	9.99822388e+16	32138.9869
1400	2.049596	9.99824772e+16	32327.6428
1400	2.049699	9.99827096e+16	32512.9288
1400	2.0498	9.99829373e+16	32695.7982
1400	2.0499	9.99831615e+16	32877.2006
1400	2.05	9.99833835e+16	33058.1053
1400	2.05	-2.65210521e+17	36727.3789
1400	2.0501	-2.60104565e+17	36204.4671
1400	2.0502	-2.55128223e+17	35685.1319
1400	2.050301	-2.50251816e+17	35171.6074
1400	2.050404	-2.45449173e+17	34661.2606
1400	2.050508	-2.40696779e+17	34151.6467
1400	2.050615	-2.35973129e+17	33640.4486
1400	2.050724	-2.31258251e+17	33125.4303
1400	2.050838	-2.26533349e+17	32604.4001
1400	2.050955	-2.21780566e+17	32075.1837
1400	2.051077	-2.16982824e+17	31535.6047
1400	2.051205	-2.12123766e+17	30983.473
1400	2.05134	-2.07187762e+17	30416.5801
1400	2.051482	-2.02160004e+17	29832.7031
1400	2.051632	-1.97026675e+17	29229.6157
1400	2.051792	-1.9177519e+17	28605.1082
1400	2.051962	-1.86394516e+17	27957.0174
1400	2.052145	-1.80875555e+17	27283.2647
1400	2.052341	-1.75211594e+17	26581.905
1400	2.052552	-1.69398791e+17	25851.1845
1400	2.052779	-1.63436694e+17	25089.6064
1400	2.053026	-1.57328746e+17	24296.0036
1400	2.053292	-1.51082767e+17	23469.6147
1400	2.053581	-1.44711349e+17	22610.1612
1400	2.053895	-1.38232138e+17	21717.9185
1400	2.054236	-1.31667956e+17	20793.7786
1400	2.054605	-1.25046732e+17	19839.296
1400	2.055007	-1.1840121e+17	18856.7111
1400	2.055443	-1.1176843e+17	17848.9466
1400	2.055915	-1.05188982e+17	16819.5701
1400	2.056425	-9.87060809e+16	15772.7219
1400	2.056977	-9.23644872e+16	14713.0049
1400	2.057572	-8.62093655e+16	13645.3395
1400	2.058212	-8.02851444e+16	12574.7869
1400	2.058898	-7.46344658e+16	11506.3472
1400	2.059631	-6.92973007e+16	10444.7418
1400	2.060414	-6.43102946e+16	9394.18817
1400	2.061245	-5.97063893e+16	8358.1789
1400	2.062124	-5.55147468e+16	7339.27377
1400	2.063052	-5.17609779e+16	6338.91439
1400	2.064026	-4.8467661e+16	5357.2679
1400	2.065046	-4.56551239e+16	4393.10459
1400	2.066107	-4.33424513e+16	3443.7121
1400	2.067207	-4.154868e+16	2504.84641
1400	2.068342	-4.02941471e+16	1570.71797
1400	2.069509	-3.96019602e+16	634.010041
1400	2.070701	-3.9499573e+16	-314.074727
1400	2.071914	-4.00204549e+16	-1283.74409
1400	2.073142	-4.12058608e+16	-2286.52666
1400	2.07438	-4.31067136e+16	-3335.16733
1400	2.07562	-4.57856289e+16	-4443.51133
1400	2.076858	-4.93191171e+16	-5626.38003
1400	2.078086	-5.38000095e+16	-6899.44113
1400	2.079299	-5.93401617e+16	-8279.07542
1400	2.080491	-6.60734891e+16	-9782.24189
1400	2.081658	-7.41593905e+16	-11426.3426
1400	2.082793	-8.37866098e+16	-13229.0889
1400	2.083893	-9.51775729e+16	-15208.3691
1400	2.084954	-1.08593222e+17	-17382.1189
1400	2.085974	-1.2433834e+17	-19768.1943
1400	2.086948	-1.42767334e+17	-22384.2465
1400	2.087876	-1.642904e+17	-25247.5978
1400	2.088755	-1.89379965e+17	-28375.119
1400	2.089586	-2.1857726e+17	-31783.1078
1400	2.090369	-2.52498838e+17	-35487.1688
1400	2.091102	-2.91842864e+17	-39502.0997
1400	2.091788	-3.37394988e+17	-43841.7872
1400	2.092428	-3.90033685e+17	-48519.1229
1400	2.093023	-4.50735014e+17	-53545.9487
1400	2.093575	-5.20576926e+17	-58933.0461
1400	2.094085	-6.0074341e+17	-64690.1847
1400	2.094557	-6.92529064e+17	-70826.2473
1400	2.094993	-7.97344936e+17	-77349.4458
1400	2.095395	-9.16726808e+17	-84267.6435
1400	2.095764	-1.05234744e+18	-91588.7951
1400	2.096105	-1.20603464e+18	-99321.5112
1400	2.096419	-1.37979724e+18	-107475.753
1400	2.096708	-1.57586168e+18	-116063.657
1400	2.096974	-1.79672193e+18	-125100.497
1400	2.097221	-2.04520635e+18	-134605.777
1400	2.097448	-2.32456569e+18	-144604.479
1400	2.097659	-2.63858762e+18	-155128.473
1400	2.097855	-2.99174492e+18	-166218.141
1400	2.098038	-3.38938729e+18	-177924.254
1400	2.098208	-3.83799039e+18	-190310.221
1400	2.098368	-4.34548193e+18	-203454.807
1400	2.098518	-4.92167349e+18	-217455.537
1400	2.09866	-5.57884019e+18	-232433.042
1400	2.098795	-6.33251109e+18	-248536.725
1400	2.098923	-7.20256589e+18	-265952.318
1400	2.099045	-8.21478569e+18	-284912.148
1400	2.099162	-9.40309151e+18	-305709.339
1400	2.099276	-1.08128496e+19	-328717.877
1400	2.099385	-1.25058758e+19	-354421.567
1400	2.099492	-1.45682287e+19	-383456.815
1400	2.099596	-1.71227391e+19	-416677.617
1400	2.099699	-2.03499096e+19	-455257.421
1400	2.0998	-2.45242952e+19	-500854.8
1400	2.0999	-3.00811202e+19	-555894.991
1400	2.1	-3.77458948e+19	-616369.798
1400	2.1	6.33749405e+19	-621453.521
1400	2.100032	6.05211867e+19	-582164.387
1400	2.100065	5.76271674e+19	-543468.751
1400	2.100098	5.46598212e+19	-505713.994
1400	2.100133	5.15870453e+19	-468433.354
1400	2.10017	4.83780518e+19	-431253.284
1400	2.10021	4.50044307e+19	-393887.742
1400	2.100253	4.14422443e+19	-356144.48
1400	2.100302	3.76755314e+19	-317942.824
1400	2.100355	3.37015823e+19	-279342.101
1400	2.100416	2.95381289e+19	-240578.121
1400	2.100486	2.52320099e+19	-202101.203
1400	2.100567	2.08676915e+19	-164602.976
1400	2.100662	1.65722342e+19	-129011.438
1400	2.100773	1.25114193e+19	-96428.2131
1400	2.100905	8.87137425e+18	-67986.2441
1400	2.101064	5.82359595e+18	-44629.6386
1400	2.101254	3.48014391e+18	-26862.3945
1400	2.101483	1.85666873e+18	-14561.7794
1400	2.101761	8.64684161e+17	-6964.35107
1400	2.102098	3.42677525e+17	-2870.65884
1400	2.102508	1.12332588e+17	-993.627642
1400	2.103008	2.95524352e+16	-280.82784
1400	2.103617	6053417290000000.0	-62.9631838
1400	2.104358	938776580000000.0	-10.8883715
1400	2.105258	107649578000000.0	-1.41593587
1400	2.10635	8965067140000.0	-0.135596017
1400	2.107672	535771675000.0	-0.00943034359
1400	2.109264	22792326300.0	-0.000488513638
1400	2.111175	647715428.0	-3.63639221e-05
1400	2.113459	-31473520.3	-2.01014853e-05
1400	2.116174	-45853070.9	-1.96837918e-05
1400	2.119383	-45973329.9	-1.9675029e-05
1400	2.123151	-45320494.9	-1.96734272e-05
1400	2.127548	-44066364.5	-1.96722965e-05
1400	2.132641	-44083544.3	-1.96712601e-05
1400	2.138497	-43241730.7	-1.96698467e-05
1400	2.145175	-42709154.8	-1.96688103e-05
1400	2.152729	-42485816.5	-1.96677267e-05
1400	2.1612	-41678362.6	-1.96669258e-05
1400	2.170614	-40870908.8	-1.96664076e-05
1400	2.180982	-39582418.6	-1.96661249e-05
1400	2.192291	-38637525.8	-1.96661249e-05
1400	2.204508	-37211596.7	-1.96665018e-05
1400	2.217576	-36077725.3	-1.9667232e-05
1400	2.231414	-34668976.0	-1.96682685e-05
1400	2.24592	-33432025.4	-1.96698703e-05
1400	2.260967	-31937376.8	-1.96719903e-05
1400	2.276416	-30511447.7	-1.96746993e-05
1400	2.292111	-28656021.8	-1.9678162e-05
1400	2.307889	-27127013.4	-1.96823314e-05
1400	2.323584	-25872883.0	-1.96873959e-05
1400	2.339033	-24172075.9	-1.96930022e-05
1400	2.35408	-22608707.8	-1.96991032e-05
1400	2.368586	-21612275.4	-1.97052277e-05
1400	2.382424	-20340965.1	-1.97105514e-05
1400	2.395492	-19018115.2	-1.97143203e-05
1400	2.407709	-17798344.5	-1.97152625e-05
1400	2.419018	-16716012.7	-1.97123416e-05
1400	2.429386	-15547781.6	-1.9704521e-05
1400	2.4388	-14877766.7	-1.96909057e-05
1400	2.447271	-13572096.7	-1.96713543e-05
1400	2.454825	-13520557.0	-1.96459139e-05
1400	2.461503	-12936441.5	-1.96150086e-05
1400	2.467359	-11716670.8	-1.95800516e-05
1400	2.472452	-11098195.5	-1.95424564e-05
1400	2.476849	-10720238.4	-1.95032593e-05
1400	2.480617	-10514079.9	-1.94635912e-05
1400	2.483826	-8263517.08	-1.93857624e-05
1400	2.486541	68959994.9	-1.71790445e-05
1400	2.488825	3605281450.0	6.76367519e-05
1400	2.490736	119065942000.0	0.00242504918
1400	2.492328	2793602810000.0	0.0490453363
1400	2.49365	46741645200000.0	0.706838696
1400	2.494742	561254454000000.0	7.38216695
1400	2.495642	4894419200000000.0	56.7678907
1400	2.496383	3.15563246e+16	328.23714
1400	2.496992	1.5396704e+17	1463.41524
1400	2.497492	5.8402164e+17	5170.91143
1400	2.497902	1.77096094e+18	14885.8071
1400	2.498239	4.40741776e+18	35834.2778
1400	2.498517	9.21680896e+18	73870.1703
1400	2.498746	1.65481986e+19	133254.949
1400	2.498936	2.60533893e+19	214610.708
1400	2.499095	3.67534311e+19	314437.663
1400	2.499227	4.74684231e+19	426463.968
1400	2.499338	5.72652505e+19	543800.014
1400	2.499433	6.56510767e+19	660648.031
1400	2.499514	7.25195406e+19	773038.199
1400	2.499584	7.79980449e+19	878779.265
1400	2.499645	8.23105035e+19	977043.427
1400	2.499698	8.56927073e+19	1067899.52
1400	2.499747	8.83531066e+19	1151936.74
1400	2.49979	9.04610162e+19	1230008.32
1400	2.49983	9.21479123e+19	1303076.43
1400	2.499867	9.35134853e+19	1372129.57
1400	2.499902	9.46324533e+19	1438147.53
1400	2.499935	9.55605706e+19	1502096.98
1400	2.499968	9.63394138e+19	1564947.55
1400	2.5	9.7e+19	1627489.16
