Notch position (nm)	Depth (microm)	rho (cm^-3)	E (V.cm^-1)
1300	0.0	-4499995500000000.0	4498.43355
1300	0.0001	-4492077740000000.0	4490.3058
1300	0.000201	-4484093650000000.0	4482.11109
1300	0.000305	-4475900600000000.0	4473.71063
1300	0.000413	-4467352760000000.0	4464.95575
1300	0.000528	-4458293410000000.0	4455.6874
1300	0.000651	-4448547310000000.0	4445.7284
1300	0.000786	-4437912420000000.0	4434.87527
1300	0.000936	-4426150600000000.0	4422.88911
1300	0.001103	-4412976670000000.0	4409.4851
1300	0.001293	-4398045510000000.0	4394.3201
1300	0.001512	-4380936460000000.0	4376.97813
1300	0.001765	-4361134740000000.0	4356.95326
1300	0.002061	-4338009090000000.0	4333.62969
1300	0.002411	-4310785510000000.0	4306.25903
1300	0.002827	-4278516530000000.0	4273.93499
1300	0.003325	-4240046350000000.0	4235.56654
1300	0.003924	-4193972500000000.0	4189.85123
1300	0.004648	-4138605850000000.0	4135.25183
1300	0.005527	-4071932680000000.0	4069.98163
1300	0.006596	-3991584950000000.0	3992.00599
1300	0.007899	-3894829350000000.0	3899.0714
1300	0.009488	-3778591160000000.0	3788.77734
1300	0.011426	-3639537100000000.0	3658.7097
1300	0.013788	-3474250240000000.0	3506.65732
1300	0.016664	-3279539290000000.0	3330.93094
1300	0.020158	-3052927320000000.0	3130.79374
1300	0.024389	-2793351700000000.0	2906.98801
1300	0.029497	-2502060960000000.0	2662.29789
1300	0.035637	-2183595580000000.0	2402.02385
1300	0.042983	-1846586420000000.0	2134.17389
1300	0.051727	-1503937850000000.0	1869.13727
1300	0.062074	-1171906100000000.0	1618.65928
1300	0.074242	-867809257000000.0	1394.13375
1300	0.088454	-606696309000000.0	1204.55205
1300	0.104935	-398032678000000.0	1054.74712
1300	0.123902	-243790209000000.0	944.615562
1300	0.145557	-138822694000000.0	869.660853
1300	0.170073	-73271107100000.0	822.619898
1300	0.197589	-35777078300000.0	795.474495
1300	0.228194	-16147088600000.0	781.09762
1300	0.261922	-6733507600000.0	774.116171
1300	0.298736	-2589444180000.0	771.011093
1300	0.33853	-907519841000.0	769.752123
1300	0.381117	-273004229000.0	769.297236
1300	0.426234	-46393770000.0	769.166798
1300	0.473541	34187647000.0	769.161486
1300	0.522631	66939813800.0	769.206294
1300	0.573038	86031578400.0	769.275933
1300	0.624255	102714024000.0	769.363249
1300	0.675745	120631518000.0	769.467129
1300	0.726962	141068533000.0	769.588211
1300	0.777369	164702307000.0	769.727457
1300	0.826459	192432610000.0	769.885851
1300	0.873766	226544382000.0	770.064936
1300	0.918883	273552689000.0	770.268815
1300	0.96147	351048533000.0	770.509208
1300	1.001264	502498364000.0	770.816232
1300	1.038078	824959730000.0	771.258087
1300	1.071806	1512740010000.0	771.971117
1300	1.102411	2912023470000.0	773.196001
1300	1.129927	5567326610000.0	775.306525
1300	1.154443	10227347000000.0	778.809444
1300	1.176098	17778313100000.0	784.295599
1300	1.195065	29096423000000.0	792.338723
1300	1.211546	44850279900000.0	803.363985
1300	1.225758	65316377900000.0	817.528289
1300	1.237926	90273463000000.0	834.654995
1300	1.248273	119011912000000.0	854.245467
1300	1.257017	150449968000000.0	875.560612
1300	1.264363	183313722000000.0	897.742792
1300	1.270503	216326018000000.0	919.941493
1300	1.275611	248359844000000.0	941.413605
1300	1.279842	278533318000000.0	961.583937
1300	1.283336	306244708000000.0	980.065764
1300	1.286212	331159969000000.0	996.650315
1300	1.288574	353170738000000.0	1011.27739
1300	1.290512	372339648000000.0	1023.99828
1300	1.292101	388845446000000.0	1034.93917
1300	1.293404	402935313000000.0	1044.26961
1300	1.294473	414887539000000.0	1052.17808
1300	1.295352	424984807000000.0	1058.85469
1300	1.296076	433496780000000.0	1064.4799
1300	1.296675	440670020000000.0	1069.21818
1300	1.297173	446723257000000.0	1073.21508
1300	1.297589	451846274000000.0	1076.59665
1300	1.297939	456201041000000.0	1079.47033
1300	1.298235	459924118000000.0	1081.92658
1300	1.298488	463129638000000.0	1084.04095
1300	1.298707	465912433000000.0	1085.87617
1300	1.298897	468351045000000.0	1087.48417
1300	1.299064	470510488000000.0	1088.9079
1300	1.299214	472444701000000.0	1090.18298
1300	1.299349	474198682000000.0	1091.33912
1300	1.299472	475810346000000.0	1092.40135
1300	1.299587	477312120000000.0	1093.39107
1300	1.299695	478732362000000.0	1094.32697
1300	1.299799	480096636000000.0	1095.22592
1300	1.2999	481428935000000.0	1096.10374
1300	1.3	482752922000000.0	1096.97481
1300	1.3	482760481000000.0	1096.97661
1300	1.3001	481439904000000.0	1097.8477
1300	1.300201	480112929000000.0	1098.72429
1300	1.300304	478759722000000.0	1099.61829
1300	1.300411	477360338000000.0	1100.54287
1300	1.300523	475893795000000.0	1101.51192
1300	1.300643	474337176000000.0	1102.5406
1300	1.300772	472664718000000.0	1103.64594
1300	1.300913	470846831000000.0	1104.84754
1300	1.301068	468849024000000.0	1106.16822
1300	1.301241	466630690000000.0	1107.6349
1300	1.301437	464143733000000.0	1109.27943
1300	1.301659	461331041000000.0	1111.13969
1300	1.301914	458124780000000.0	1113.26067
1300	1.302209	454444573000000.0	1115.69574
1300	1.302552	450195605000000.0	1118.50788
1300	1.302955	445266801000000.0	1121.77097
1300	1.30343	439529267000000.0	1125.57086
1300	1.303992	432835300000000.0	1130.00606
1300	1.304659	425018399000000.0	1135.18787
1300	1.305455	415894847000000.0	1141.23942
1300	1.306404	405267607000000.0	1148.29328
1300	1.307539	392933375000000.0	1156.48692
1300	1.308895	378693699000000.0	1165.95555
1300	1.310516	362370951000000.0	1176.82179
1300	1.312451	343829580000000.0	1189.18164
1300	1.314756	323002298000000.0	1203.08726
1300	1.317496	299919691000000.0	1218.52713
1300	1.320742	274740079000000.0	1235.40581
1300	1.324576	247774646000000.0	1253.52647
1300	1.329083	219501191000000.0	1272.58055
1300	1.334358	190559242000000.0	1292.14951
1300	1.3405	161720428000000.0	1311.72284
1300	1.34761	133831654000000.0	1330.73448
1300	1.355792	107734663000000.0	1348.61551
1300	1.365147	84172960100000.0	1364.85614
1300	1.375769	63703273500000.0	1379.06571
1300	1.387742	46631060100000.0	1391.01738
1300	1.401139	32985758900000.0	1400.66624
1300	1.416009	22541670300000.0	1408.13619
1300	1.432382	14877395400000.0	1413.67868
1300	1.450259	9455419070000.0	1417.61379
1300	1.46961	5697729810000.0	1420.26638
1300	1.490372	3034197670000.0	1421.90635
1300	1.512448	904218509000.0	1422.69278
1300	1.535708	-1308178660000.0	1422.60763
1300	1.559986	-4438830220000.0	1421.34518
1300	1.585092	-9876958330000.0	1418.09362
1300	1.610806	-20208570200000.0	1411.09465
1300	1.636893	-40430591500000.0	1396.78325
1300	1.663107	-80164505800000.0	1368.18471
1300	1.689194	-157449156000000.0	1312.10609
1300	1.714908	-304557207000000.0	1204.62882
1300	1.740014	-575113127000000.0	1004.83686
1300	1.764292	-1048149000000000.0	648.29631
1300	1.787552	-1817578690000000.0	45.2828767
1300	1.809628	-2949955810000000.0	-906.887471
1300	1.83039	-4409603200000000.0	-2289.2318
1300	1.849741	-6006697050000000.0	-4112.72856
1300	1.867618	-7459999050000000.0	-6290.64998
1300	1.883991	-8560118030000000.0	-8663.6014
1300	1.898861	-9272382830000000.0	-11062.6017
1300	1.912258	-9694479190000000.0	-13361.2498
1300	1.924231	-9961322210000000.0	-15490.4322
1300	1.934853	-1.01946404e+16	-17427.2549
1300	1.944208	-1.05036389e+16	-19178.9065
1300	1.95239	-1.10050976e+16	-20771.0187
1300	1.9595	-1.18405047e+16	-22240.5911
1300	1.965642	-1.31814112e+16	-23630.8659
1300	1.970917	-1.52213597e+16	-24986.317
1300	1.975424	-1.81567795e+16	-26347.388
1300	1.979258	-2.21618092e+16	-27745.6395
1300	1.982504	-2.7362821e+16	-29200.2742
1300	1.985244	-3.38176737e+16	-30716.7253
1300	1.987549	-4.15033308e+16	-32287.4353
1300	1.989484	-5.03140075e+16	-33894.4363
1300	1.991105	-6.00703634e+16	-35513.0259
1300	1.992461	-7.05383012e+16	-37115.7487
1300	1.993596	-8.14539912e+16	-38675.9924
1300	1.994545	-9.25505193e+16	-40170.7298
1300	1.995341	-1.03581584e+17	-41582.1994
1300	1.996008	-1.14338906e+17	-42898.5547
1300	1.99657	-1.24661923e+17	-44113.6809
1300	1.997045	-1.34440143e+17	-45226.4498
1300	1.997448	-1.43609814e+17	-46239.689
1300	1.997791	-1.52147012e+17	-47159.0857
1300	1.998086	-1.60059165e+17	-47992.1777
1300	1.998341	-1.6737655e+17	-48747.5118
1300	1.998563	-1.74144739e+17	-49434.0006
1300	1.998759	-1.80418453e+17	-50060.4688
1300	1.998932	-1.86256964e+17	-50635.3637
1300	1.999087	-1.91720915e+17	-51166.5976
1300	1.999228	-1.9687036e+17	-51661.4905
1300	1.999357	-2.01763803e+17	-52126.7848
1300	1.999477	-2.06458014e+17	-52568.713
1300	1.999589	-2.1100848e+17	-52993.1046
1300	1.999696	-2.1547041e+17	-53405.5249
1300	1.999799	-2.19900268e+17	-53811.4459
1300	1.9999	-2.24357911e+17	-54216.4558
1300	2.0	-2.28909517e+17	-54622.4041
1300	2.0	9.99969527e+16	-54625.4924
1300	2.0001	9.99968892e+16	-54444.5629
1300	2.0002	9.99968244e+16	-54263.1354
1300	2.000301	9.99967579e+16	-54080.2405
1300	2.000404	9.99966893e+16	-53894.9283
1300	2.000508	9.99966182e+16	-53706.2454
1300	2.000615	9.99965442e+16	-53513.2135
1300	2.000724	9.99964666e+16	-53314.8106
1300	2.000838	9.9996385e+16	-53109.953
1300	2.000955	9.99962987e+16	-52897.4781
1300	2.001077	9.99962069e+16	-52676.1274
1300	2.001205	9.99961088e+16	-52444.5301
1300	2.00134	9.99960035e+16	-52201.1868
1300	2.001482	9.99958898e+16	-51944.4525
1300	2.001632	9.99957664e+16	-51672.5215
1300	2.001792	9.99956318e+16	-51383.4116
1300	2.001962	9.99954844e+16	-51074.9491
1300	2.002145	9.9995322e+16	-50744.7563
1300	2.002341	9.99951422e+16	-50390.24
1300	2.002552	9.99949424e+16	-50008.5824
1300	2.002779	9.99947193e+16	-49596.7363
1300	2.003026	9.99944691e+16	-49151.424
1300	2.003292	9.99941873e+16	-48669.1413
1300	2.003581	9.99938686e+16	-48146.1681
1300	2.003895	9.99935071e+16	-47578.5864
1300	2.004236	9.99930955e+16	-46962.3064
1300	2.004605	9.99926253e+16	-46293.102
1300	2.005007	9.99920868e+16	-45566.6561
1300	2.005443	9.99914685e+16	-44778.6168
1300	2.005915	9.99907571e+16	-43924.6644
1300	2.006425	9.99899373e+16	-43000.5887
1300	2.006977	9.99889918e+16	-42002.3765
1300	2.007572	9.99879008e+16	-40926.3088
1300	2.008212	9.99866425e+16	-39769.0637
1300	2.008898	9.99851931e+16	-38527.826
1300	2.009631	9.99835274e+16	-37200.3978
1300	2.010414	9.99816199e+16	-35785.3084
1300	2.011245	9.99794458e+16	-34281.919
1300	2.012124	9.99769834e+16	-32690.5185
1300	2.013052	9.99742162e+16	-31012.4059
1300	2.014026	9.99711367e+16	-29249.9546
1300	2.015046	9.99677494e+16	-27406.6564
1300	2.016107	9.9964075e+16	-25487.139
1300	2.017207	9.99601534e+16	-23497.1573
1300	2.018342	9.99560465e+16	-21443.5544
1300	2.019509	9.99518386e+16	-19334.1929
1300	2.020701	9.99476353e+16	-17177.8569
1300	2.021914	9.99435588e+16	-14984.1262
1300	2.023142	9.99397411e+16	-12763.226
1300	2.02438	9.99363145e+16	-10525.857
1300	2.02562	9.99334014e+16	-8283.00955
1300	2.026858	9.99311034e+16	-6045.76979
1300	2.028086	9.99294929e+16	-3825.12187
1300	2.029299	9.9928607e+16	-1631.75433
1300	2.030491	9.99284455e+16	524.124038
1300	2.031658	9.99289729e+16	2632.95299
1300	2.032793	9.99301236e+16	4685.96931
1300	2.033893	9.99318096e+16	6675.33095
1300	2.034954	9.99339293e+16	8594.21387
1300	2.035974	9.99363763e+16	10436.8799
1300	2.036948	9.9939047e+16	12198.7147
1300	2.037876	9.99418459e+16	13876.2373
1300	2.038755	9.99446905e+16	15467.0815
1300	2.039586	9.99475121e+16	16969.9531
1300	2.040369	9.99502571e+16	18384.5657
1300	2.041102	9.9952886e+16	19711.5586
1300	2.041788	9.99553715e+16	20952.4017
1300	2.042428	9.9957697e+16	22109.291
1300	2.043023	9.99598546e+16	23185.0395
1300	2.043575	9.99618429e+16	24182.9659
1300	2.044085	9.99636655e+16	25106.7867
1300	2.044557	9.99653293e+16	25960.5118
1300	2.044993	9.99668435e+16	26748.3485
1300	2.045395	9.99682187e+16	27474.6141
1300	2.045764	9.99694661e+16	28143.6578
1300	2.046105	9.99705969e+16	28759.7943
1300	2.046419	9.99716221e+16	29327.2479
1300	2.046708	9.99725522e+16	29850.1063
1300	2.046974	9.9973397e+16	30332.2861
1300	2.047221	9.99741657e+16	30777.5057
1300	2.047448	9.99748666e+16	31189.2681
1300	2.047659	9.99755074e+16	31570.8499
1300	2.047855	9.99760948e+16	31925.2973
1300	2.048038	9.99766351e+16	32255.4272
1300	2.048208	9.99771338e+16	32563.8321
1300	2.048368	9.99775959e+16	32852.8891
1300	2.048518	9.99780257e+16	33124.7711
1300	2.04866	9.99784272e+16	33381.4598
1300	2.048795	9.99788039e+16	33624.7608
1300	2.048923	9.99791588e+16	33856.3182
1300	2.049045	9.99794948e+16	34077.6315
1300	2.049162	9.99798144e+16	34290.0709
1300	2.049276	9.99801196e+16	34494.8948
1300	2.049385	9.99804127e+16	34693.2655
1300	2.049492	9.99806953e+16	34886.2664
1300	2.049596	9.99809691e+16	35074.9195
1300	2.049699	9.99812358e+16	35260.2027
1300	2.0498	9.99814967e+16	35443.0694
1300	2.0499	9.99817533e+16	35624.4693
1300	2.05	9.9982007e+16	35805.3714
1300	2.05	-2.9604134e+17	39779.2286
1300	2.0501	-2.90049008e+17	39196.1168
1300	2.0502	-2.84218074e+17	38617.2773
1300	2.050301	-2.78513176e+17	38045.4773
1300	2.050404	-2.72903271e+17	37477.7689
1300	2.050508	-2.67360605e+17	36911.4246
1300	2.050615	-2.61859931e+17	36343.8693
1300	2.050724	-2.56377937e+17	35772.6278
1300	2.050838	-2.50892823e+17	35195.2835
1300	2.050955	-2.45384009e+17	34609.4488
1300	2.051077	-2.39831953e+17	34012.7437
1300	2.051205	-2.34218077e+17	33402.7831
1300	2.05134	-2.28524775e+17	32777.1728
1300	2.051482	-2.22735518e+17	32133.5136
1300	2.051632	-2.16835051e+17	31469.4145
1300	2.051792	-2.10809664e+17	30782.5163
1300	2.051962	-2.04647558e+17	30070.5237
1300	2.052145	-1.98339269e+17	29331.249
1300	2.052341	-1.91878171e+17	28562.6653
1300	2.052552	-1.85261003e+17	27762.97
1300	2.052779	-1.78488434e+17	26930.6561
1300	2.053026	-1.71565592e+17	26064.5906
1300	2.053292	-1.64502558e+17	25164.0958
1300	2.053581	-1.57314749e+17	24229.0297
1300	2.053895	-1.5002316e+17	23259.8609
1300	2.054236	-1.42654419e+17	22257.7308
1300	2.054605	-1.35240613e+17	21224.4982
1300	2.055007	-1.27818876e+17	20162.7588
1300	2.055443	-1.2043071e+17	19075.8338
1300	2.055915	-1.13121082e+17	17967.7236
1300	2.056425	-1.05937323e+17	16843.023
1300	2.056977	-9.89278948e+16	15706.7981
1300	2.057572	-9.21411056e+16	14564.4261
1300	2.058212	-8.56238619e+16	13421.4049
1300	2.058898	-7.94205477e+16	12283.1371
1300	2.059631	-7.35721115e+16	11154.7008
1300	2.060414	-6.8115425e+16	10040.6148
1300	2.061245	-6.30829548e+16	8944.61115
1300	2.062124	-5.85027656e+16	7869.42374
1300	2.063052	-5.43988489e+16	6816.60225
1300	2.064026	-5.07917534e+16	5786.35793
1300	2.065046	-4.76994792e+16	4777.44565
1300	2.066107	-4.51385934e+16	3787.08419
1300	2.067207	-4.31255221e+16	2810.91449
1300	2.068342	-4.16779799e+16	1842.99383
1300	2.069509	-4.08165072e+16	875.822306
1300	2.070701	-4.05660952e+16	-99.6026029
1300	2.071914	-4.0957892e+16	-1093.7083
1300	2.073142	-4.20309944e+16	-2118.25075
1300	2.07438	-4.38343434e+16	-3186.20398
1300	2.07562	-4.64287526e+16	-4311.63906
1300	2.076858	-4.98891077e+16	-5509.59591
1300	2.078086	-5.43067869e+16	-6795.95029
1300	2.079299	-5.97923538e+16	-8187.27828
1300	2.080491	-6.64785818e+16	-9700.71988
1300	2.081658	-7.45238652e+16	-11353.8431
1300	2.082793	-8.41160685e+16	-13164.5097
1300	2.083893	-9.54768505e+16	-15150.7435
1300	2.084954	-1.08866486e+17	-17330.6009
1300	2.085974	-1.24589182e+17	-19722.0451
1300	2.086948	-1.42998843e+17	-22342.8215
1300	2.087876	-1.64505235e+17	-25210.335
1300	2.088755	-1.89580416e+17	-28341.5286
1300	2.089586	-2.18765294e+17	-31752.7627
1300	2.090369	-2.52676149e+17	-35459.6964
1300	2.091102	-2.9201091e+17	-39477.1746
1300	2.091788	-3.37555026e+17	-43819.1248
1300	2.092428	-3.90186795e+17	-48498.474
1300	2.093023	-4.50882129e+17	-53527.0948
1300	2.093575	-5.20718848e+17	-58915.7952
1300	2.094085	-6.00880831e+17	-64674.3681
1300	2.094557	-6.92662582e+17	-70811.7162
1300	2.094993	-7.97475065e+17	-77336.069
1300	2.095395	-9.16853992e+17	-84255.3053
1300	2.095764	-1.05247207e+18	-91577.3931
1300	2.096105	-1.20615703e+18	-99310.955
1300	2.096419	-1.37991768e+18	-107465.962
1300	2.096708	-1.57598043e+18	-116054.562
1300	2.096974	-1.79683919e+18	-125092.034
1300	2.097221	-2.04532232e+18	-134597.891
1300	2.097448	-2.32468052e+18	-144597.121
1300	2.097659	-2.63870145e+18	-155121.6
1300	2.097855	-2.99185788e+18	-166211.714
1300	2.098038	-3.38949949e+18	-177918.241
1300	2.098208	-3.83810192e+18	-190304.591
1300	2.098368	-4.34559288e+18	-203449.534
1300	2.098518	-4.92178395e+18	-217450.599
1300	2.09866	-5.57895024e+18	-232428.419
1300	2.098795	-6.3326208e+18	-248532.398
1300	2.098923	-7.20267533e+18	-265948.274
1300	2.099045	-8.21489494e+18	-284908.373
1300	2.099162	-9.40320067e+18	-305705.821
1300	2.099276	-1.08129588e+19	-328714.608
1300	2.099385	-1.25059851e+19	-354418.539
1300	2.099492	-1.45683382e+19	-383454.021
1300	2.099596	-1.71228492e+19	-416675.054
1300	2.099699	-2.03500205e+19	-455255.085
1300	2.0998	-2.45244074e+19	-500852.69
1300	2.0999	-3.00812344e+19	-555893.11
1300	2.1	-3.77460122e+19	-616368.147
1300	2.1	6.33748269e+19	-621451.871
1300	2.100032	6.05210723e+19	-582162.812
1300	2.100065	5.76270527e+19	-543467.251
1300	2.100098	5.46597071e+19	-505712.57
1300	2.100133	5.15869324e+19	-468432.01
1300	2.10017	4.8377941e+19	-431252.024
1300	2.10021	4.5004323e+19	-393886.569
1300	2.100253	4.14421406e+19	-356143.4
1300	2.100302	3.76754331e+19	-317941.84
1300	2.100355	3.37014905e+19	-279341.22
1300	2.100416	2.9538045e+19	-240577.349
1300	2.100486	2.52319352e+19	-202100.542
1300	2.100567	2.08676273e+19	-164602.428
1300	2.100662	1.65721813e+19	-129011.002
1300	2.100773	1.25113781e+19	-96427.8815
1300	2.100905	8.87134424e+18	-67986.0072
1300	2.101064	5.82357582e+18	-44629.4814
1300	2.101254	3.48013169e+18	-26862.2991
1300	2.101483	1.85666214e+18	-14561.7274
1300	2.101761	8.6468107e+17	-6964.3261
1300	2.102098	3.42676296e+17	-2870.64852
1300	2.102508	1.12332185e+17	-993.624057
1300	2.103008	2.95523295e+16	-280.826816
1300	2.103617	6053396070000000.0	-62.9629426
1300	2.104358	938773743000000.0	-10.8883175
1300	2.105258	107649727000000.0	-1.41591589
1300	2.10635	8965569960000.0	-0.135580639
1300	2.107672	536303341000.0	-0.00941542026
1300	2.109264	23323768400.0	-0.000473622437
1300	2.111175	1176546160.0	-2.14741354e-05
1300	2.113459	496377960.0	-5.21179281e-06
1300	2.116174	478528076.0	-4.79414648e-06
1300	2.119383	475349800.0	-4.78528946e-06
1300	2.123151	471449970.0	-4.78411166e-06
1300	2.127548	466897305.0	-4.78265119e-06
1300	2.132641	461966682.0	-4.78133206e-06
1300	2.138497	455541411.0	-4.78020138e-06
1300	2.145175	448703823.0	-4.7790707e-06
1300	2.152729	441900595.0	-4.77798712e-06
1300	2.1612	433482459.0	-4.77720978e-06
1300	2.170614	424153790.0	-4.7767151e-06
1300	2.180982	412677638.0	-4.77645599e-06
1300	2.192291	401905860.0	-4.77640888e-06
1300	2.204508	389519174.0	-4.77678577e-06
1300	2.217576	376273495.0	-4.77745712e-06
1300	2.231414	363010636.0	-4.77855247e-06
1300	2.24592	347772092.0	-4.78015427e-06
1300	2.260967	333014584.0	-4.78228608e-06
1300	2.276416	316831147.0	-4.78503034e-06
1300	2.292111	301437985.0	-4.78843417e-06
1300	2.307889	286113541.0	-4.79262712e-06
1300	2.323584	269895745.0	-4.79763276e-06
1300	2.339033	254193344.0	-4.80330973e-06
1300	2.35408	238937621.0	-4.80941071e-06
1300	2.368586	224540890.0	-4.81549991e-06
1300	2.382424	210281599.0	-4.82083533e-06
1300	2.395492	197568496.0	-4.82455716e-06
1300	2.407709	185765925.0	-4.8254994e-06
1300	2.419018	174513111.0	-4.82264913e-06
1300	2.429386	163466455.0	-4.81480502e-06
1300	2.4388	154206506.0	-4.80116614e-06
1300	2.447271	146372485.0	-4.78159118e-06
1300	2.454825	138074609.0	-4.75612724e-06
1300	2.461503	131735237.0	-4.7253161e-06
1300	2.467359	125791002.0	-4.69035913e-06
1300	2.472452	121032178.0	-4.65271678e-06
1300	2.476849	116221815.0	-4.61337841e-06
1300	2.480617	113369957.0	-4.57380447e-06
1300	2.483826	110672717.0	-4.49635263e-06
1300	2.486541	185851825.0	-2.2895405e-06
1300	2.488825	3719287060.0	8.25266328e-05
1300	2.490736	119177972000.0	0.00243993878
1300	2.492328	2793712760000.0	0.0490602267
1300	2.49365	46741754400000.0	0.706853587
1300	2.494742	561254563000000.0	7.38218186
1300	2.495642	4894419320000000.0	56.7679057
1300	2.496383	3.15563248e+16	328.237156
1300	2.496992	1.5396704e+17	1463.41525
1300	2.497492	5.84021642e+17	5170.91146
1300	2.497902	1.77096094e+18	14885.8071
1300	2.498239	4.40741777e+18	35834.2779
1300	2.498517	9.21680898e+18	73870.1705
1300	2.498746	1.65481986e+19	133254.95
1300	2.498936	2.60533894e+19	214610.708
1300	2.499095	3.67534312e+19	314437.663
1300	2.499227	4.74684232e+19	426463.969
1300	2.499338	5.72652505e+19	543800.015
1300	2.499433	6.56510768e+19	660648.032
1300	2.499514	7.25195407e+19	773038.201
1300	2.499584	7.7998045e+19	878779.266
1300	2.499645	8.23105035e+19	977043.429
1300	2.499698	8.56927073e+19	1067899.52
1300	2.499747	8.83531067e+19	1151936.74
1300	2.49979	9.04610162e+19	1230008.32
1300	2.49983	9.21479123e+19	1303076.43
1300	2.499867	9.35134853e+19	1372129.57
1300	2.499902	9.46324534e+19	1438147.53
1300	2.499935	9.55605706e+19	1502096.98
1300	2.499968	9.63394139e+19	1564947.55
1300	2.5	9.7e+19	1627489.16
