Notch position (nm)	Depth (microm)	rho (cm^-3)	E (V.cm^-1)
1300	0.0	-4499980470000000.0	4497.61307
1300	0.0001	-4492062080000000.0	4489.48535
1300	0.000201	-4484077360000000.0	4481.29067
1300	0.000305	-4475883670000000.0	4472.89023
1300	0.000413	-4467335150000000.0	4464.13539
1300	0.000528	-4458275100000000.0	4454.86708
1300	0.000651	-4448528240000000.0	4444.90812
1300	0.000786	-4437892530000000.0	4434.05503
1300	0.000936	-4426129800000000.0	4422.06893
1300	0.001103	-4412954860000000.0	4408.66498
1300	0.001293	-4398022560000000.0	4393.50006
1300	0.001512	-4380912220000000.0	4376.15818
1300	0.001765	-4361109000000000.0	4356.13343
1300	0.002061	-4337981640000000.0	4332.81
1300	0.002411	-4310756050000000.0	4305.43952
1300	0.002827	-4278484730000000.0	4273.11571
1300	0.003325	-4240011800000000.0	4234.74757
1300	0.003924	-4193934710000000.0	4189.03264
1300	0.004648	-4138564260000000.0	4134.43376
1300	0.005527	-4071886660000000.0	4069.16427
1300	0.006596	-3991533770000000.0	3991.18956
1300	0.007899	-3894772230000000.0	3898.25625
1300	0.009488	-3778527320000000.0	3787.96392
1300	0.011426	-3639465790000000.0	3657.89866
1300	0.013788	-3474170890000000.0	3505.8495
1300	0.016664	-3279451640000000.0	3330.12746
1300	0.020158	-3052831620000000.0	3129.99605
1300	0.024389	-2793249010000000.0	2906.19792
1300	0.029497	-2501953310000000.0	2661.51752
1300	0.035637	-2183486200000000.0	2401.25553
1300	0.042983	-1846479660000000.0	2133.41994
1300	0.051727	-1503838870000000.0	1868.39959
1300	0.062074	-1171820120000000.0	1617.93893
1300	0.074242	-867740628000000.0	1393.43041
1300	0.088454	-606647522000000.0	1203.86381
1300	0.104935	-398003866000000.0	1054.07046
1300	0.123902	-243779309000000.0	943.945725
1300	0.145557	-138826242000000.0	868.992467
1300	0.170073	-73285312500000.0	821.947588
1300	0.197589	-35798734000000.0	794.793276
1300	0.228194	-16174045300000.0	780.402964
1300	0.261922	-6764716470000.0	773.403797
1300	0.298736	-2624739330000.0	770.276608
1300	0.33853	-947341040000.0	768.990643
1300	0.381117	-318184493000.0	768.503065
1300	0.426234	-98043944600.0	768.333175
1300	0.473541	-25280713800.0	768.280392
1300	0.522631	-1931311450.0	768.268305
1300	0.573038	5926848730.0	768.270124
1300	0.624255	9294835520.0	768.277175
1300	0.675745	11579706100.0	768.286898
1300	0.726962	13865150100.0	768.298688
1300	0.777369	16695718200.0	768.312627
1300	0.826459	20950990200.0	768.329349
1300	0.873766	29081530000.0	768.350767
1300	0.918883	48094548400.0	768.382275
1300	0.96147	96679726800.0	768.438062
1300	1.001264	220523769000.0	768.552268
1300	1.038078	520829064000.0	768.799191
1300	1.071806	1198932650000.0	769.323946
1300	1.102411	2611592380000.0	770.379026
1300	1.129927	5317062530000.0	772.352723
1300	1.154443	10078913100000.0	775.767459
1300	1.176098	17795829100000.0	781.228197
1300	1.195065	29350127100000.0	789.318072
1300	1.211546	45407589800000.0	800.464448
1300	1.225758	66232881400000.0	814.818418
1300	1.237926	91586367600000.0	832.190682
1300	1.248273	120737361000000.0	852.0657
1300	1.257017	152584156000000.0	873.686269
1300	1.264363	185836675000000.0	896.178066
1300	1.270503	219206564000000.0	918.676999
1300	1.275611	251560514000000.0	940.430182
1300	1.279842	282014434000000.0	960.856363
1300	1.283336	309967361000000.0	979.565914
1300	1.286212	335087927000000.0	996.349566
1300	1.288574	357271471000000.0	1011.14828
1300	1.290512	376584720000000.0	1024.01554
1300	1.292101	393210490000000.0	1035.08021
1300	1.293404	407399759000000.0	1044.51471
1300	1.294473	419434217000000.0	1052.51034
1300	1.295352	429599509000000.0	1059.25979
1300	1.296076	438167826000000.0	1064.94585
1300	1.296675	445387852000000.0	1069.73503
1300	1.297173	451480086000000.0	1073.77462
1300	1.297589	456635765000000.0	1077.19212
1300	1.297939	461018052000000.0	1080.0962
1300	1.298235	464764483000000.0	1082.57835
1300	1.298488	467989982000000.0	1084.71494
1300	1.298707	470790026000000.0	1086.56941
1300	1.298897	473243680000000.0	1088.19422
1300	1.299064	475416388000000.0	1089.63281
1300	1.299214	477362437000000.0	1090.92117
1300	1.299349	479127116000000.0	1092.08935
1300	1.299472	480748579000000.0	1093.16261
1300	1.299587	482259459000000.0	1094.1626
1300	1.299695	483688289000000.0	1095.1082
1300	1.299799	485060791000000.0	1096.01645
1300	1.2999	486401106000000.0	1096.90334
1300	1.3	487733039000000.0	1097.78341
1300	1.3	487746408000000.0	1097.78522
1300	1.3001	486414081000000.0	1098.66531
1300	1.300201	485075275000000.0	1099.55096
1300	1.300304	483709977000000.0	1100.4542
1300	1.300411	482298064000000.0	1101.38835
1300	1.300523	480818361000000.0	1102.36743
1300	1.300643	479247740000000.0	1103.40675
1300	1.300772	477560199000000.0	1104.52354
1300	1.300913	475725874000000.0	1105.73759
1300	1.301068	473709947000000.0	1107.07197
1300	1.301241	471471426000000.0	1108.55385
1300	1.301437	468961753000000.0	1110.21546
1300	1.301659	466123262000000.0	1112.09504
1300	1.301914	462887451000000.0	1114.23806
1300	1.302209	459173139000000.0	1116.69846
1300	1.302552	454884544000000.0	1119.53988
1300	1.302955	449909432000000.0	1122.83698
1300	1.30343	444117524000000.0	1126.67652
1300	1.303992	437359473000000.0	1131.15805
1300	1.304659	429466839000000.0	1136.39407
1300	1.305455	420253642000000.0	1142.50902
1300	1.306404	409520234000000.0	1149.63687
1300	1.307539	397060342000000.0	1157.91654
1300	1.308895	382672199000000.0	1167.48465
1300	1.310516	366174574000000.0	1178.46502
1300	1.312451	347428108000000.0	1190.95445
1300	1.314756	326361672000000.0	1205.0052
1300	1.317496	303002191000000.0	1220.60478
1300	1.320742	277504807000000.0	1237.65525
1300	1.324576	250178325000000.0	1255.95519
1300	1.329083	221499244000000.0	1275.18883
1300	1.334358	192106957000000.0	1294.92706
1300	1.3405	162773738000000.0	1314.64499
1300	1.34761	134346667000000.0	1333.7576
1300	1.355792	107664501000000.0	1351.67166
1300	1.365147	83459551200000.0	1367.84608
1300	1.375769	62260446900000.0	1381.84858
1300	1.387742	44312920100000.0	1393.39297
1300	1.401139	29529831600000.0	1402.34218
1300	1.416009	17467179400000.0	1408.66468
1300	1.432382	7300228580000.0	1412.33331
1300	1.450259	-2257156910000.0	1413.14892
1300	1.46961	-13192427000000.0	1410.44429
1300	1.490372	-28774997700000.0	1402.56155
1300	1.512448	-54812525400000.0	1385.86748
1300	1.535708	-102212682000000.0	1352.82586
1300	1.559986	-191985447000000.0	1288.20688
1300	1.585092	-364436429000000.0	1161.83162
1300	1.610806	-694052874000000.0	915.593837
1300	1.636893	-1306470780000000.0	443.456174
1300	1.663107	-2373601780000000.0	-429.251244
1300	1.689194	-4021493260000000.0	-1938.53866
1300	1.714908	-6099417030000000.0	-4292.97949
1300	1.740014	-8040953450000000.0	-7504.55858
1300	1.764292	-9281117850000000.0	-11309.2547
1300	1.787552	-9807584370000000.0	-15325.9454
1300	1.809628	-9960771560000000.0	-19274.0742
1300	1.83039	-9993429830000000.0	-23022.0672
1300	1.849741	-9998956240000000.0	-26521.971
1300	1.867618	-9999773560000000.0	-29756.2951
1300	1.883991	-9999901310000000.0	-32718.7113
1300	1.898861	-9999936170000000.0	-35409.2824
1300	1.912258	-9999966130000000.0	-37833.1274
1300	1.924231	-1.00000494e+16	-39999.5959
1300	1.934853	-1.00004217e+16	-41921.4764
1300	1.944208	-1.00020638e+16	-43614.2434
1300	1.95239	-1.00084204e+16	-45095.4506
1300	1.9595	-1.00295687e+16	-46384.4169
1300	1.965642	-1.0089996e+16	-47502.3012
1300	1.970917	-1.02391243e+16	-48472.4506
1300	1.975424	-1.05599097e+16	-49320.5689
1300	1.979258	-1.11681281e+16	-50074.0832
1300	1.982504	-1.21972348e+16	-50760.3469
1300	1.985244	-1.3771049e+16	-51403.9794
1300	1.987549	-1.59738584e+16	-52024.2261
1300	1.989484	-1.88293023e+16	-52633.3067
1300	1.991105	-2.22948222e+16	-53236.2605
1300	1.992461	-2.62714475e+16	-53832.1612
1300	1.993596	-3.06234942e+16	-54416.1344
1300	1.994545	-3.52011723e+16	-54981.5111
1300	1.995341	-3.98604132e+16	-55521.6216
1300	1.996008	-4.44767997e+16	-56030.9927
1300	1.99657	-4.89529331e+16	-56505.9399
1300	1.997045	-5.32202068e+16	-56944.6805
1300	1.997448	-5.72366839e+16	-57347.1359
1300	1.997791	-6.09828129e+16	-57714.5809
1300	1.998086	-6.44563752e+16	-58049.2526
1300	1.998341	-6.76676011e+16	-58353.9918
1300	1.998563	-7.06349661e+16	-58631.9498
1300	1.998759	-7.33818688e+16	-58886.3699
1300	1.998932	-7.5934192e+16	-59120.4398
1300	1.999087	-7.83186445e+16	-59337.2026
1300	1.999228	-8.05617431e+16	-59539.5139
1300	1.999357	-8.26892951e+16	-59730.034
1300	1.999477	-8.47262662e+16	-59911.2442
1300	1.999589	-8.66969452e+16	-60085.4834
1300	1.999696	-8.86253567e+16	-60254.9994
1300	1.999799	-9.05359034e+16	-60422.0151
1300	1.9999	-9.24542633e+16	-60588.8122
1300	2.0	-9.44086088e+16	-60756.0702
1300	2.0	9.99988467e+16	-60757.396
1300	2.0001	9.99988265e+16	-60576.463
1300	2.0002	9.99988059e+16	-60395.0319
1300	2.000301	9.99987847e+16	-60212.1333
1300	2.000404	9.99987628e+16	-60026.8174
1300	2.000508	9.999874e+16	-59838.1305
1300	2.000615	9.99987163e+16	-59645.0944
1300	2.000724	9.99986914e+16	-59446.6872
1300	2.000838	9.99986651e+16	-59241.825
1300	2.000955	9.99986373e+16	-59029.3452
1300	2.001077	9.99986076e+16	-58807.9892
1300	2.001205	9.99985758e+16	-58576.3863
1300	2.00134	9.99985416e+16	-58333.0369
1300	2.001482	9.99985046e+16	-58076.296
1300	2.001632	9.99984643e+16	-57804.3578
1300	2.001792	9.99984202e+16	-57515.2399
1300	2.001962	9.99983718e+16	-57206.7686
1300	2.002145	9.99983182e+16	-56876.5662
1300	2.002341	9.99982588e+16	-56522.039
1300	2.002552	9.99981923e+16	-56140.3692
1300	2.002779	9.99981178e+16	-55728.5095
1300	2.003026	9.99980339e+16	-55283.1817
1300	2.003292	9.99979388e+16	-54800.8813
1300	2.003581	9.99978306e+16	-54277.8879
1300	2.003895	9.99977071e+16	-53710.2831
1300	2.004236	9.99975654e+16	-53093.9764
1300	2.004605	9.99974023e+16	-52424.741
1300	2.005007	9.99972138e+16	-51698.2591
1300	2.005443	9.99969952e+16	-50910.1779
1300	2.005915	9.99967409e+16	-50056.1763
1300	2.006425	9.99964444e+16	-49132.0429
1300	2.006977	9.99960979e+16	-48133.7628
1300	2.007572	9.99956922e+16	-47057.6148
1300	2.008212	9.99952168e+16	-45900.275
1300	2.008898	9.99946595e+16	-44658.9253
1300	2.009631	9.99940068e+16	-43331.3647
1300	2.010414	9.99932434e+16	-41916.1189
1300	2.011245	9.99923534e+16	-40412.5451
1300	2.012124	9.99913199e+16	-38820.9278
1300	2.013052	9.99901267e+16	-37142.5613
1300	2.014026	9.99887592e+16	-35379.8144
1300	2.015046	9.99872062e+16	-33536.1743
1300	2.016107	9.99854617e+16	-31616.2648
1300	2.017207	9.99835275e+16	-29625.8375
1300	2.018342	9.99814154e+16	-27571.7339
1300	2.019509	9.99791487e+16	-25461.8166
1300	2.020701	9.9976764e+16	-23304.8718
1300	2.021914	9.99743107e+16	-21110.4839
1300	2.023142	9.99718499e+16	-18888.8852
1300	2.02438	9.9969451e+16	-16650.7858
1300	2.02562	9.99671876e+16	-14407.1874
1300	2.026858	9.99651318e+16	-12169.1886
1300	2.028086	9.99633483e+16	-9947.78636
1300	2.029299	9.99618893e+16	-7753.682
1300	2.030491	9.99607904e+16	-5597.09569
1300	2.031658	9.99600685e+16	-3487.59732
1300	2.032793	9.99597213e+16	-1433.95752
1300	2.033893	9.99597293e+16	555.976637
1300	2.034954	9.99600588e+16	2475.37849
1300	2.035974	9.99606661e+16	4318.50931
1300	2.036948	9.99615017e+16	6080.75619
1300	2.037876	9.99625144e+16	7758.64071
1300	2.038755	9.99636546e+16	9349.80033
1300	2.039586	9.9964877e+16	10852.9451
1300	2.040369	9.99661418e+16	12267.793
1300	2.041102	9.99674159e+16	13594.9878
1300	2.041788	9.99686728e+16	14836.0036
1300	2.042428	9.99698924e+16	15993.0405
1300	2.043023	9.99710601e+16	17068.9149
1300	2.043575	9.99721661e+16	18066.9488
1300	2.044085	9.99732048e+16	18990.8614
1300	2.044557	9.99741735e+16	19844.6649
1300	2.044993	9.99750722e+16	20632.569
1300	2.045395	9.99759024e+16	21358.8923
1300	2.045764	9.99766671e+16	22027.9858
1300	2.046105	9.99773699e+16	22644.1655
1300	2.046419	9.9978015e+16	23211.6564
1300	2.046708	9.99786068e+16	23734.5474
1300	2.046974	9.99791499e+16	24216.7556
1300	2.047221	9.99796487e+16	24662.0003
1300	2.047448	9.99801073e+16	25073.7847
1300	2.047659	9.99805298e+16	25455.3861
1300	2.047855	9.998092e+16	25809.851
1300	2.048038	9.99812811e+16	26139.9965
1300	2.048208	9.99816165e+16	26448.4155
1300	2.048368	9.9981929e+16	26737.4852
1300	2.048518	9.99822212e+16	27009.3788
1300	2.04866	9.99824955e+16	27266.0782
1300	2.048795	9.9982754e+16	27509.3889
1300	2.048923	9.99829986e+16	27740.9553
1300	2.049045	9.99832312e+16	27962.277
1300	2.049162	9.99834532e+16	28174.7243
1300	2.049276	9.99836661e+16	28379.5555
1300	2.049385	9.99838712e+16	28577.9331
1300	2.049492	9.99840697e+16	28770.9407
1300	2.049596	9.99842627e+16	28959.6
1300	2.049699	9.99844513e+16	29144.8893
1300	2.0498	9.99846364e+16	29327.7618
1300	2.0499	9.9984819e+16	29509.1673
1300	2.05	9.99850001e+16	29690.075
1300	2.05	-2.29459285e+17	32985.8505
1300	2.0501	-2.25318394e+17	32532.8725
1300	2.0502	-2.21274782e+17	32082.7235
1300	2.050301	-2.17304793e+17	31637.076
1300	2.050404	-2.1338745e+17	31193.6586
1300	2.050508	-2.09503784e+17	30750.3529
1300	2.050615	-2.05636333e+17	30305.1417
1300	2.050724	-2.01768757e+17	29856.0685
1300	2.050838	-1.97885563e+17	29401.2066
1300	2.050955	-1.93971907e+17	28938.6347
1300	2.051077	-1.90013475e+17	28466.4202
1300	2.051205	-1.85996427e+17	27982.608
1300	2.05134	-1.81907408e+17	27485.2163
1300	2.051482	-1.77733622e+17	26972.239
1300	2.051632	-1.73462975e+17	26441.6545
1300	2.051792	-1.69084273e+17	25891.4429
1300	2.051962	-1.64587496e+17	25319.6107
1300	2.052145	-1.59964124e+17	24724.2245
1300	2.052341	-1.55207523e+17	24103.4532
1300	2.052552	-1.50313377e+17	23455.619
1300	2.052779	-1.45280145e+17	22779.2562
1300	2.053026	-1.40109535e+17	22073.1762
1300	2.053292	-1.34806949e+17	21336.5373
1300	2.053581	-1.29381884e+17	20568.9154
1300	2.053895	-1.23848246e+17	19770.3717
1300	2.054236	-1.18224533e+17	18941.5128
1300	2.054605	-1.12533866e+17	18083.5375
1300	2.055007	-1.06803837e+17	17198.2644
1300	2.055443	-1.01066152e+17	16288.1356
1300	2.055915	-9.53560797e+16	15356.1904
1300	2.056425	-8.97117153e+16	14406.0061
1300	2.056977	-8.41731044e+16	13441.6048
1300	2.057572	-7.87812731e+16	12467.3259
1300	2.058212	-7.35772352e+16	11487.6671
1300	2.058898	-6.86010463e+16	10507.101
1300	2.059631	-6.38909759e+16	9529.87232
1300	2.060414	-5.94828618e+16	8559.78654
1300	2.061245	-5.54096941e+16	7599.99831
1300	2.062124	-5.17014636e+16	6652.81004
1300	2.063052	-4.83852846e+16	5719.48876
1300	2.064026	-4.54857917e+16	4800.10869
1300	2.065046	-4.30257904e+16	3893.42472
1300	2.066107	-4.10271374e+16	2996.77987
1300	2.067207	-3.9511817e+16	2106.0477
1300	2.068342	-3.8503185e+16	1215.60886
1300	2.069509	-3.80273536e+16	318.359113
1300	2.070701	-3.81146974e+16	-594.254282
1300	2.071914	-3.88014733e+16	-1532.17214
1300	2.073142	-4.01315541e+16	-2506.64283
1300	2.07438	-4.21582898e+16	-3530.12572
1300	2.07562	-4.49465211e+16	-4616.18209
1300	2.076858	-4.85747787e+16	-5779.35661
1300	2.078086	-5.31377136e+16	-7035.05205
1300	2.079299	-5.87488083e+16	-8399.39931
1300	2.080491	-6.55434236e+16	-9889.12483
1300	2.081658	-7.36822355e+16	-11521.4168
1300	2.082793	-8.33551107e+16	-13313.792
1300	2.083893	-9.47854582e+16	-15283.9633
1300	2.084954	-1.08235077e+17	-17449.7096
1300	2.085974	-1.24009495e+17	-19828.7478
1300	2.086948	-1.42463765e+17	-22438.606
1300	2.087876	-1.64008639e+17	-25296.499
1300	2.088755	-1.89117029e+17	-28419.2035
1300	2.089586	-2.18330578e+17	-31822.935
1300	2.090369	-2.52266196e+17	-35523.2271
1300	2.091102	-2.91622356e+17	-39534.8157
1300	2.091788	-3.37184972e+17	-43871.534
1300	2.092428	-3.89832747e+17	-48546.2273
1300	2.093023	-4.50541935e+17	-53570.6973
1300	2.093575	-5.20390653e+17	-58955.6907
1300	2.094085	-6.00563037e+17	-64710.9469
1300	2.094557	-6.92353811e+17	-70845.3222
1300	2.094993	-7.97174127e+17	-77367.0055
1300	2.095395	-9.16559862e+17	-84283.84
1300	2.095764	-1.05218386e+18	-91603.7626
1300	2.096105	-1.20587398e+18	-99335.3686
1300	2.096419	-1.37963913e+18	-107488.605
1300	2.096708	-1.5757058e+18	-116075.597
1300	2.096974	-1.79656799e+18	-125111.607
1300	2.097221	-2.04505412e+18	-134616.129
1300	2.097448	-2.32441496e+18	-144614.138
1300	2.097659	-2.63843818e+18	-155137.496
1300	2.097855	-2.99159663e+18	-166226.577
1300	2.098038	-3.38924001e+18	-177932.148
1300	2.098208	-3.83784398e+18	-190317.612
1300	2.098368	-4.34533627e+18	-203461.728
1300	2.098518	-4.92152848e+18	-217462.02
1300	2.09866	-5.57869573e+18	-232439.111
1300	2.098795	-6.33236708e+18	-248542.404
1300	2.098923	-7.20242223e+18	-265957.628
1300	2.099045	-8.21464227e+18	-284917.105
1300	2.099162	-9.40294822e+18	-305713.956
1300	2.099276	-1.08127063e+19	-328722.169
1300	2.099385	-1.25057323e+19	-354425.542
1300	2.099492	-1.45680848e+19	-383460.482
1300	2.099596	-1.71225946e+19	-416680.982
1300	2.099699	-2.03497641e+19	-455260.488
1300	2.0998	-2.4524148e+19	-500857.568
1300	2.0999	-3.00809704e+19	-555897.461
1300	2.1	-3.77457408e+19	-616371.966
1300	2.1	6.33750896e+19	-621455.686
1300	2.100032	6.0521337e+19	-582166.454
1300	2.100065	5.76273179e+19	-543470.72
1300	2.100098	5.46599711e+19	-505715.862
1300	2.100133	5.15871934e+19	-468435.117
1300	2.10017	4.83781971e+19	-431254.938
1300	2.10021	4.50045721e+19	-393889.281
1300	2.100253	4.14423803e+19	-356145.899
1300	2.100302	3.76756606e+19	-317944.114
1300	2.100355	3.37017029e+19	-279343.256
1300	2.100416	2.95382391e+19	-240579.135
1300	2.100486	2.52321079e+19	-202102.071
1300	2.100567	2.08677758e+19	-164603.695
1300	2.100662	1.65723035e+19	-129012.012
1300	2.100773	1.25114733e+19	-96428.6483
1300	2.100905	8.87141364e+18	-67986.555
1300	2.101064	5.82362238e+18	-44629.8449
1300	2.101254	3.48015996e+18	-26862.5197
1300	2.101483	1.85667739e+18	-14561.8477
1300	2.101761	8.64688219e+17	-6964.38383
1300	2.102098	3.42679138e+17	-2870.67237
1300	2.102508	1.12333118e+17	-993.632328
1300	2.103008	2.95525746e+16	-280.829165
1300	2.103617	6053445850000000.0	-62.9634811
1300	2.104358	938781006000000.0	-10.888423
1300	2.105258	107650082000000.0	-1.41594269
1300	2.10635	8965105170000.0	-0.135596798
1300	2.107672	535770799000.0	-0.00943052978
1300	2.109264	22788684200.0	-0.00048865893
1300	2.111175	642784806.0	-3.65060114e-05
1300	2.113459	-34411278.0	-2.02430092e-05
1300	2.116174	-49220325.2	-1.98257869e-05
1300	2.119383	-48928267.4	-1.98171183e-05
1300	2.123151	-48533130.4	-1.98157992e-05
1300	2.127548	-48739288.9	-1.98143858e-05
1300	2.132641	-47055661.7	-1.98128782e-05
1300	2.138497	-46969762.3	-1.9811936e-05
1300	2.145175	-46282567.6	-1.98108995e-05
1300	2.152729	-45698452.0	-1.98096746e-05
1300	2.1612	-44032004.7	-1.98091093e-05
1300	2.170614	-43980465.1	-1.98085439e-05
1300	2.180982	-42777874.3	-1.98082142e-05
1300	2.192291	-41626823.0	-1.98083084e-05
1300	2.204508	-40183714.0	-1.98084968e-05
1300	2.217576	-38792144.6	-1.98092506e-05
1300	2.231414	-37898791.4	-1.98103813e-05
1300	2.24592	-36541581.8	-1.98118418e-05
1300	2.260967	-34514357.2	-1.98139618e-05
1300	2.276416	-32109175.5	-1.98167885e-05
1300	2.292111	-31009663.9	-1.98202748e-05
1300	2.307889	-29703993.8	-1.98244206e-05
1300	2.323584	-27848567.9	-1.98294145e-05
1300	2.339033	-26302379.7	-1.98350208e-05
1300	2.35408	-24824911.0	-1.98412396e-05
1300	2.368586	-23811298.7	-1.98472228e-05
1300	2.382424	-22058952.0	-1.98525935e-05
1300	2.395492	-20890720.9	-1.98562682e-05
1300	2.407709	-18760417.1	-1.98573047e-05
1300	2.419018	-17832704.2	-1.98545251e-05
1300	2.429386	-16784732.2	-1.98465161e-05
1300	2.4388	-15238544.0	-1.98331363e-05
1300	2.447271	-15410342.7	-1.98134436e-05
1300	2.454825	-13761075.2	-1.97878147e-05
1300	2.461503	-12953621.4	-1.97570978e-05
1300	2.467359	-12592844.1	-1.97221409e-05
1300	2.472452	-11854109.7	-1.96844514e-05
1300	2.476849	-10840497.5	-1.96452544e-05
1300	2.480617	-10995116.3	-1.96058689e-05
1300	2.483826	-9861244.91	-1.95280401e-05
1300	2.486541	68118181.3	-1.73213222e-05
1300	2.488825	3604181940.0	6.74950395e-05
1300	2.490736	119065547000.0	0.00242490785
1300	2.492328	2793601970000.0	0.0490451946
1300	2.49365	46741644600000.0	0.706838554
1300	2.494742	561254454000000.0	7.38216681
1300	2.495642	4894419200000000.0	56.7678905
1300	2.496383	3.15563246e+16	328.23714
1300	2.496992	1.5396704e+17	1463.41524
1300	2.497492	5.8402164e+17	5170.91143
1300	2.497902	1.77096094e+18	14885.8071
1300	2.498239	4.40741776e+18	35834.2778
1300	2.498517	9.21680896e+18	73870.1703
1300	2.498746	1.65481986e+19	133254.949
1300	2.498936	2.60533893e+19	214610.708
1300	2.499095	3.67534311e+19	314437.663
1300	2.499227	4.74684231e+19	426463.968
1300	2.499338	5.72652505e+19	543800.014
1300	2.499433	6.56510767e+19	660648.031
1300	2.499514	7.25195406e+19	773038.199
1300	2.499584	7.79980449e+19	878779.265
1300	2.499645	8.23105035e+19	977043.427
1300	2.499698	8.56927073e+19	1067899.52
1300	2.499747	8.83531066e+19	1151936.74
1300	2.49979	9.04610162e+19	1230008.32
1300	2.49983	9.21479123e+19	1303076.43
1300	2.499867	9.35134853e+19	1372129.57
1300	2.499902	9.46324533e+19	1438147.53
1300	2.499935	9.55605706e+19	1502096.98
1300	2.499968	9.63394138e+19	1564947.55
1300	2.5	9.7e+19	1627489.16
