Notch position (nm)	Depth (microm)	rho (cm^-3)	E (V.cm^-1)
1400	0.0	-4499980020000000.0	4442.89069
1400	0.0001	-4492061090000000.0	4434.76297
1400	0.000201	-4484074400000000.0	4426.56684
1400	0.000305	-4475874440000000.0	4418.16056
1400	0.000413	-4467312280000000.0	4409.39237
1400	0.000528	-4458227640000000.0	4400.0996
1400	0.000652	-4448440970000000.0	4390.10075
1400	0.000788	-4437744850000000.0	4379.18695
1400	0.000939	-4425894250000000.0	4367.11245
1400	0.001108	-4412595140000000.0	4353.58365
1400	0.0013	-4397490900000000.0	4338.24607
1400	0.001522	-4380145940000000.0	4320.6691
1400	0.001779	-4360025990000000.0	4300.32791
1400	0.002081	-4336474540000000.0	4276.5824
1400	0.002438	-4308684870000000.0	4248.65311
1400	0.002863	-4275667400000000.0	4215.59443
1400	0.003374	-4236212540000000.0	4176.26603
1400	0.00399	-4188849760000000.0	4129.3046
1400	0.004737	-4131805020000000.0	4073.0994
1400	0.005645	-4062960420000000.0	4005.77719
1400	0.006752	-3979823350000000.0	3925.20533
1400	0.008105	-3879516550000000.0	3829.02556
1400	0.009759	-3758807710000000.0	3714.73522
1400	0.011781	-3614205520000000.0	3579.83723
1400	0.014253	-3442160220000000.0	3422.0823
1400	0.017268	-3239415840000000.0	3239.82439
1400	0.020939	-3003564080000000.0	3032.4975
1400	0.025395	-2733831320000000.0	2801.19191
1400	0.030786	-2432071290000000.0	2549.25527
1400	0.03728	-2103815600000000.0	2282.76851
1400	0.045066	-1759052470000000.0	2010.66894
1400	0.054352	-1412224900000000.0	1744.26059
1400	0.065362	-1080920080000000.0	1495.93845
1400	0.078332	-783063889000000.0	1277.21096
1400	0.09351	-533176655000000.0	1096.48465
1400	0.11114	-339032648000000.0	957.371432
1400	0.131462	-200230495000000.0	858.228045
1400	0.154698	-109353626000000.0	793.149169
1400	0.181043	-55051034300000.0	753.966133
1400	0.21065	-25497574100000.0	732.391573
1400	0.243621	-10859429600000.0	721.546951
1400	0.279995	-4256983490000.0	716.572596
1400	0.319738	-1539522360000.0	714.488469
1400	0.362736	-515066051000.0	713.689256
1400	0.408787	-159282721000.0	713.408308
1400	0.457605	-44479316100.0	713.318311
1400	0.508821	-9540390340.0	713.293275
1400	0.56199	867868172.0	713.289096
1400	0.616602	4273086930.0	713.291629
1400	0.672101	5866782270.0	713.296712
1400	0.727899	7121602800.0	713.303262
1400	0.783398	8482776630.0	713.31109
1400	0.83801	10216614000.0	713.320324
1400	0.891179	12893305500.0	713.331436
1400	0.942395	18320319000.0	713.345896
1400	0.991213	32170807100.0	713.368195
1400	1.037264	70933931600.0	713.411151
1400	1.080262	178382363000.0	713.508136
1400	1.120005	459408174000.0	713.737458
1400	1.156379	1138813860000.0	714.263391
1400	1.18935	2643902070000.0	715.391714
1400	1.218957	5689180750000.0	717.623699
1400	1.245302	11316223600000.0	721.676656
1400	1.268538	20831898000000.0	728.434647
1400	1.28886	35614593200000.0	738.812329
1400	1.30649	56818512100000.0	753.554977
1400	1.321668	85066895800000.0	773.036551
1400	1.334638	120244529000000.0	797.12864
1400	1.345648	161463258000000.0	825.187297
1400	1.354934	207204812000000.0	856.157867
1400	1.36272	255582952000000.0	888.75654
1400	1.369214	304639415000000.0	921.670029
1400	1.374605	352597916000000.0	953.722934
1400	1.379061	398032294000000.0	983.984921
1400	1.382732	439939709000000.0	1011.81364
1400	1.385747	477734803000000.0	1036.84568
1400	1.388219	511192035000000.0	1058.95452
1400	1.390241	540363510000000.0	1078.19398
1400	1.391895	565493372000000.0	1094.74064
1400	1.393248	586941825000000.0	1108.84372
1400	1.394355	605124789000000.0	1120.78574
1400	1.395263	620470218000000.0	1130.85433
1400	1.39601	633389299000000.0	1139.32403
1400	1.396626	644259538000000.0	1146.44566
1400	1.397137	653416559000000.0	1152.44147
1400	1.397562	661151843000000.0	1157.50392
1400	1.397919	667714182000000.0	1161.79699
1400	1.398221	673313230000000.0	1165.45862
1400	1.398478	678124051000000.0	1168.60385
1400	1.3987	682291925000000.0	1171.32805
1400	1.398892	685937005000000.0	1173.71001
1400	1.399061	689158591000000.0	1175.81483
1400	1.399212	692038922000000.0	1177.69637
1400	1.399348	694646488000000.0	1179.39946
1400	1.399472	697038886000000.0	1180.9618
1400	1.399587	699265291000000.0	1182.41556
1400	1.399695	701368628000000.0	1183.78878
1400	1.399799	703387532000000.0	1185.10673
1400	1.3999	705358218000000.0	1186.39306
1400	1.4	707316378000000.0	1187.6693
1400	1.4	707329735000000.0	1187.67197
1400	1.4001	705356991000000.0	1188.94821
1400	1.400201	703375431000000.0	1190.23204
1400	1.400304	701356756000000.0	1191.54
1400	1.40041	699272573000000.0	1192.89051
1400	1.400522	697093111000000.0	1194.30287
1400	1.400641	694785985000000.0	1195.79807
1400	1.400768	692314954000000.0	1197.39963
1400	1.400907	689638590000000.0	1199.13443
1400	1.40106	686708832000000.0	1201.03366
1400	1.401229	683469364000000.0	1203.13388
1400	1.401419	679853806000000.0	1205.47821
1400	1.401634	675783687000000.0	1208.11761
1400	1.40188	671166233000000.0	1211.11238
1400	1.402163	665891982000000.0	1214.53369
1400	1.402491	659832341000000.0	1218.46519
1400	1.402873	652837218000000.0	1223.00457
1400	1.403321	644733006000000.0	1228.2649
1400	1.403849	635321250000000.0	1234.37556
1400	1.404472	624378549000000.0	1241.48229
1400	1.405212	611658343000000.0	1249.74614
1400	1.406089	596895464000000.0	1259.34048
1400	1.407132	579814433000000.0	1270.44562
1400	1.408373	560142541000000.0	1283.24018
1400	1.409848	537628633000000.0	1297.88863
1400	1.4116	512068089000000.0	1314.52444
1400	1.413677	483333668000000.0	1333.22897
1400	1.416134	451410589000000.0	1354.00698
1400	1.419032	416432413000000.0	1376.76045
1400	1.422438	378712209000000.0	1401.26423
1400	1.426426	338761490000000.0	1427.14783
1400	1.431073	297288231000000.0	1453.88839
1400	1.436462	255165594000000.0	1480.81962
1400	1.442676	213365524000000.0	1507.1588
1400	1.449799	172855940000000.0	1532.04972
1400	1.457915	134465761000000.0	1554.61298
1400	1.467099	98725878000000.0	1573.98727
1400	1.477419	65692456800000.0	1589.33756
1400	1.48893	34747091400000.0	1599.79757
1400	1.501673	4341128340000.0	1604.3038
1400	1.515668	-28396769300000.0	1601.25813
1400	1.530913	-68348371100000.0	1587.91544
1400	1.54738	-123667116000000.0	1559.30979
1400	1.565016	-208064395000000.0	1506.38396
1400	1.583737	-344774316000000.0	1412.75028
1400	1.603435	-572881565000000.0	1249.22439
1400	1.623973	-955788739000000.0	965.198894
1400	1.645191	-1587599630000000.0	476.984584
1400	1.66691	-2582312870000000.0	-342.348838
1400	1.688935	-4014439610000000.0	-1656.83411
1400	1.711065	-5792646630000000.0	-3620.18465
1400	1.73309	-7566737720000000.0	-6282.20873
1400	1.754809	-8896732530000000.0	-9517.06588
1400	1.776027	-9616019690000000.0	-13070.668
1400	1.796565	-9896218880000000.0	-16696.0234
1400	1.816263	-9977377770000000.0	-20237.4899
1400	1.834984	-9995757510000000.0	-23620.3175
1400	1.85262	-9999213580000000.0	-26810.3984
1400	1.869087	-9999798620000000.0	-29789.7652
1400	1.884332	-9999905130000000.0	-32548.0429
1400	1.898327	-9999937820000000.0	-35080.209
1400	1.91107	-9999965980000000.0	-37385.8676
1400	1.922581	-1.0000037e+16	-39468.7155
1400	1.932901	-1.0000328e+16	-41335.9723
1400	1.942085	-1.00015454e+16	-42997.7906
1400	1.950201	-1.00061237e+16	-44466.7335
1400	1.957324	-1.00211895e+16	-45757.4388
1400	1.963538	-1.00643764e+16	-46886.5781
1400	1.968927	-1.01724889e+16	-47873.0907
1400	1.973574	-1.04103141e+16	-48738.421
1400	1.977562	-1.08740046e+16	-49506.2667
1400	1.980968	-1.16834305e+16	-50201.4008
1400	1.983866	-1.29623594e+16	-50847.554
1400	1.986323	-1.48119104e+16	-51464.907
1400	1.9884	-1.72867281e+16	-52068.0329
1400	1.990152	-2.03820759e+16	-52664.9692
1400	1.991627	-2.40349551e+16	-53257.6075
1400	1.992868	-2.8136954e+16	-53843.1108
1400	1.993911	-3.25534191e+16	-54415.8093
1400	1.994788	-3.71432408e+16	-54969.0442
1400	1.995528	-4.17751123e+16	-55496.6081
1400	1.996151	-4.63382964e+16	-55993.6459
1400	1.996679	-5.0747789e+16	-56457.0492
1400	1.997127	-5.49449269e+16	-56885.4686
1400	1.997509	-5.88949327e+16	-57279.0875
1400	1.997837	-6.25828358e+16	-57639.2857
1400	1.99812	-6.60088956e+16	-57968.2845
1400	1.998366	-6.91842657e+16	-58268.8268
1400	1.998581	-7.21272968e+16	-58543.9188
1400	1.998771	-7.48606268e+16	-58796.6381
1400	1.99894	-7.74090472e+16	-59030.005
1400	1.999093	-7.97980528e+16	-59246.9047
1400	1.999232	-8.20529549e+16	-59450.0506
1400	1.999359	-8.41984364e+16	-59641.9781
1400	1.999478	-8.62584518e+16	-59825.0617
1400	1.99959	-8.82563973e+16	-60001.5489
1400	1.999696	-9.02155095e+16	-60173.609
1400	1.999799	-9.21594821e+16	-60343.3959
1400	1.9999	-9.41133239e+16	-60513.1274
1400	2.0	-9.61045264e+16	-60683.3863
1400	2.0	9.99988234e+16	-60684.7371
1400	2.0001	9.99988029e+16	-60503.8041
1400	2.0002	9.99987819e+16	-60322.3731
1400	2.000301	9.99987604e+16	-60139.4745
1400	2.000404	9.99987381e+16	-59954.1586
1400	2.000508	9.9998715e+16	-59765.4718
1400	2.000615	9.99986909e+16	-59572.4358
1400	2.000724	9.99986655e+16	-59374.0286
1400	2.000838	9.99986388e+16	-59169.1664
1400	2.000955	9.99986105e+16	-58956.6867
1400	2.001077	9.99985804e+16	-58735.3308
1400	2.001205	9.99985481e+16	-58503.728
1400	2.00134	9.99985133e+16	-58260.3786
1400	2.001482	9.99984757e+16	-58003.6378
1400	2.001632	9.99984347e+16	-57731.6997
1400	2.001792	9.999839e+16	-57442.5818
1400	2.001962	9.99983407e+16	-57134.1107
1400	2.002145	9.99982863e+16	-56803.9083
1400	2.002341	9.99982259e+16	-56449.3812
1400	2.002552	9.99981584e+16	-56067.7116
1400	2.002779	9.99980827e+16	-55655.852
1400	2.003026	9.99979974e+16	-55210.5244
1400	2.003292	9.99979009e+16	-54728.2242
1400	2.003581	9.9997791e+16	-54205.231
1400	2.003895	9.99976656e+16	-53637.6263
1400	2.004236	9.99975218e+16	-53021.3199
1400	2.004605	9.99973562e+16	-52352.0848
1400	2.005007	9.99971648e+16	-51625.6033
1400	2.005443	9.9996943e+16	-50837.5225
1400	2.005915	9.9996685e+16	-49983.5214
1400	2.006425	9.99963842e+16	-49059.3885
1400	2.006977	9.99960327e+16	-48061.109
1400	2.007572	9.99956214e+16	-46984.9618
1400	2.008212	9.99951394e+16	-45827.6228
1400	2.008898	9.99945746e+16	-44586.2742
1400	2.009631	9.99939132e+16	-43258.7147
1400	2.010414	9.999314e+16	-41843.4703
1400	2.011245	9.99922387e+16	-40339.8981
1400	2.012124	9.99911925e+16	-38748.2828
1400	2.013052	9.99899851e+16	-37069.9185
1400	2.014026	9.99886019e+16	-35307.1743
1400	2.015046	9.99870316e+16	-33463.5373
1400	2.016107	9.99852685e+16	-31543.6312
1400	2.017207	9.99833147e+16	-29553.208
1400	2.018342	9.99811823e+16	-27499.109
1400	2.019509	9.99788951e+16	-25389.1968
1400	2.020701	9.99764903e+16	-23232.2577
1400	2.021914	9.99740182e+16	-21037.876
1400	2.023142	9.99715403e+16	-18816.284
1400	2.02438	9.9969127e+16	-16578.1917
1400	2.02562	9.99668524e+16	-14334.6007
1400	2.026858	9.9964789e+16	-12096.6094
1400	2.028086	9.9963002e+16	-9875.21489
1400	2.029299	9.99615436e+16	-7681.11812
1400	2.030491	9.99604494e+16	-5524.53922
1400	2.031658	9.99597356e+16	-3415.04796
1400	2.032793	9.99593998e+16	-1361.41489
1400	2.033893	9.99594216e+16	628.513008
1400	2.034954	9.99597668e+16	2547.9091
1400	2.035974	9.99603911e+16	4391.0347
1400	2.036948	9.99612443e+16	6153.27689
1400	2.037876	9.99622747e+16	7831.15723
1400	2.038755	9.99634323e+16	9422.31318
1400	2.039586	9.99646714e+16	10925.4547
1400	2.040369	9.99659521e+16	12340.2999
1400	2.041102	9.9967241e+16	13667.4922
1400	2.041788	9.99685117e+16	14908.506
1400	2.042428	9.99697438e+16	16065.5411
1400	2.043023	9.99709229e+16	17141.4139
1400	2.043575	9.99720392e+16	18139.4465
1400	2.044085	9.99730872e+16	19063.3579
1400	2.044557	9.99740643e+16	19917.1605
1400	2.044993	9.99749704e+16	20705.0637
1400	2.045395	9.99758073e+16	21431.3864
1400	2.045764	9.99765779e+16	22100.4792
1400	2.046105	9.99772861e+16	22716.6583
1400	2.046419	9.9977936e+16	23284.1488
1400	2.046708	9.99785321e+16	23807.0394
1400	2.046974	9.99790791e+16	24289.2473
1400	2.047221	9.99795813e+16	24734.4916
1400	2.047448	9.99800431e+16	25146.2758
1400	2.047659	9.99804684e+16	25527.8769
1400	2.047855	9.99808611e+16	25882.3416
1400	2.048038	9.99812246e+16	26212.487
1400	2.048208	9.99815622e+16	26520.9058
1400	2.048368	9.99818766e+16	26809.9754
1400	2.048518	9.99821707e+16	27081.8688
1400	2.04866	9.99824467e+16	27338.568
1400	2.048795	9.99827067e+16	27581.8786
1400	2.048923	9.99829529e+16	27813.445
1400	2.049045	9.99831868e+16	28034.7665
1400	2.049162	9.99834102e+16	28247.2137
1400	2.049276	9.99836243e+16	28452.0448
1400	2.049385	9.99838306e+16	28650.4224
1400	2.049492	9.99840303e+16	28843.4299
1400	2.049596	9.99842244e+16	29032.0891
1400	2.049699	9.9984414e+16	29217.3783
1400	2.0498	9.99846001e+16	29400.2508
1400	2.0499	9.99847838e+16	29581.6562
1400	2.05	9.99849659e+16	29762.5638
1400	2.05	-2.3020521e+17	33066.3791
1400	2.0501	-2.26044898e+17	32611.9405
1400	2.0502	-2.2198249e+17	32160.3458
1400	2.050301	-2.17994212e+17	31713.2787
1400	2.050404	-2.14058981e+17	31268.4601
1400	2.050508	-2.1015774e+17	30823.765
1400	2.050615	-2.06272943e+17	30377.1697
1400	2.050724	-2.02388179e+17	29926.712
1400	2.050838	-1.98487888e+17	29470.4596
1400	2.050955	-1.94557165e+17	29006.4858
1400	2.051077	-1.90581638e+17	28532.8528
1400	2.051205	-1.86547415e+17	28047.6006
1400	2.05134	-1.82441095e+17	27548.7425
1400	2.051482	-1.78249839e+17	27034.2677
1400	2.051632	-1.73961516e+17	26502.1501
1400	2.051792	-1.69564903e+17	25950.3657
1400	2.051962	-1.65049958e+17	25376.9172
1400	2.052145	-1.60408145e+17	24779.8681
1400	2.052341	-1.55632827e+17	24157.3846
1400	2.052552	-1.50719695e+17	23507.787
1400	2.052779	-1.4566723e+17	22829.6088
1400	2.053026	-1.40477172e+17	22121.6615
1400	2.053292	-1.3515497e+17	21383.105
1400	2.053581	-1.29710186e+17	20613.518
1400	2.053895	-1.24156798e+17	19812.9661
1400	2.054236	-1.18513395e+17	18982.0616
1400	2.054605	-1.12803199e+17	18122.0108
1400	2.055007	-1.07053907e+17	17234.6414
1400	2.055443	-1.0129734e+17	16322.4055
1400	2.055915	-9.55688781e+16	15388.3537
1400	2.056425	-8.99067286e+16	14436.0756
1400	2.056977	-8.43510395e+16	13469.6059
1400	2.057572	-7.89429288e+16	12493.2966
1400	2.058212	-7.3723488e+16	11511.658
1400	2.058898	-6.87328331e+16	10529.1743
1400	2.059631	-6.4009276e+16	9550.10106
1400	2.060414	-5.95886779e+16	8578.25305
1400	2.061245	-5.55040341e+16	7616.79276
1400	2.062124	-5.17853237e+16	6668.02867
1400	2.063052	-4.84596345e+16	5733.23206
1400	2.064026	-4.55515618e+16	4812.47965
1400	2.065046	-4.30838628e+16	3904.52707
1400	2.066107	-4.10783382e+16	3006.71653
1400	2.067207	-3.95569121e+16	2114.91937
1400	2.068342	-3.85428779e+16	1223.51278
1400	2.069509	-3.80622851e+16	325.388133
1400	2.070701	-3.81454467e+16	-588.01249
1400	2.071914	-3.88285603e+16	-1526.6356
1400	2.073142	-4.0155443e+16	-2501.73562
1400	2.07438	-4.21793926e+16	-3525.7781
1400	2.07562	-4.49652019e+16	-4612.3305
1400	2.076858	-4.85913577e+16	-5775.94357
1400	2.078086	-5.31524714e+16	-7032.02588
1400	2.079299	-5.87619902e+16	-8396.71384
1400	2.080491	-6.5555243e+16	-9886.73901
1400	2.081658	-7.36928781e+16	-11519.2944
1400	2.082793	-8.33647372e+16	-13311.9009
1400	2.083893	-9.47942078e+16	-15282.2754
1400	2.084954	-1.0824307e+17	-17448.2003
1400	2.085974	-1.24016835e+17	-19827.3955
1400	2.086948	-1.42470541e+17	-22437.3921
1400	2.087876	-1.6401493e+17	-25295.4069
1400	2.088755	-1.891229e+17	-28418.2189
1400	2.089586	-2.18336086e+17	-31822.0455
1400	2.090369	-2.52271391e+17	-35522.4218
1400	2.091102	-2.9162728e+17	-39534.085
1400	2.091788	-3.37189663e+17	-43870.8696
1400	2.092428	-3.89837234e+17	-48545.6219
1400	2.093023	-4.50546247e+17	-53570.1445
1400	2.093575	-5.20394814e+17	-58955.1849
1400	2.094085	-6.00567066e+17	-64710.4832
1400	2.094557	-6.92357725e+17	-70844.8962
1400	2.094993	-7.97177942e+17	-77366.6133
1400	2.095395	-9.1656359e+17	-84283.4782
1400	2.095764	-1.05218751e+18	-91603.4283
1400	2.096105	-1.20587757e+18	-99335.059
1400	2.096419	-1.37964266e+18	-107488.318
1400	2.096708	-1.57570928e+18	-116075.33
1400	2.096974	-1.79657143e+18	-125111.359
1400	2.097221	-2.04505752e+18	-134615.898
1400	2.097448	-2.32441832e+18	-144613.922
1400	2.097659	-2.63844152e+18	-155137.294
1400	2.097855	-2.99159994e+18	-166226.388
1400	2.098038	-3.3892433e+18	-177931.972
1400	2.098208	-3.83784725e+18	-190317.447
1400	2.098368	-4.34533952e+18	-203461.574
1400	2.098518	-4.92153172e+18	-217461.875
1400	2.09866	-5.57869896e+18	-232438.976
1400	2.098795	-6.3323703e+18	-248542.277
1400	2.098923	-7.20242544e+18	-265957.509
1400	2.099045	-8.21464547e+18	-284916.994
1400	2.099162	-9.40295142e+18	-305713.853
1400	2.099276	-1.08127095e+19	-328722.073
1400	2.099385	-1.25057356e+19	-354425.454
1400	2.099492	-1.4568088e+19	-383460.4
1400	2.099596	-1.71225978e+19	-416680.907
1400	2.099699	-2.03497673e+19	-455260.419
1400	2.0998	-2.45241513e+19	-500857.506
1400	2.0999	-3.00809737e+19	-555897.405
1400	2.1	-3.77457442e+19	-616371.918
1400	2.1	6.33750862e+19	-621455.637
1400	2.100032	6.05213337e+19	-582166.408
1400	2.100065	5.76273146e+19	-543470.676
1400	2.100098	5.46599677e+19	-505715.82
1400	2.100133	5.15871901e+19	-468435.078
1400	2.10017	4.83781939e+19	-431254.901
1400	2.10021	4.50045689e+19	-393889.247
1400	2.100253	4.14423772e+19	-356145.867
1400	2.100302	3.76756577e+19	-317944.085
1400	2.100355	3.37017002e+19	-279343.23
1400	2.100416	2.95382366e+19	-240579.113
1400	2.100486	2.52321057e+19	-202102.051
1400	2.100567	2.08677739e+19	-164603.679
1400	2.100662	1.6572302e+19	-129011.999
1400	2.100773	1.25114721e+19	-96428.6386
1400	2.100905	8.87141276e+18	-67986.5481
1400	2.101064	5.82362179e+18	-44629.8403
1400	2.101254	3.48015961e+18	-26862.5169
1400	2.101483	1.8566772e+18	-14561.8461
1400	2.101761	8.64688128e+17	-6964.3831
1400	2.102098	3.42679102e+17	-2870.67207
1400	2.102508	1.12333106e+17	-993.632224
1400	2.103008	2.95525715e+16	-280.829136
1400	2.103617	6053445210000000.0	-62.9634749
1400	2.104358	938780906000000.0	-10.8884223
1400	2.105258	107650070000000.0	-1.41594299
1400	2.10635	8965103800000.0	-0.135597236
1400	2.107672	535770078000.0	-0.00943097979
1400	2.109264	22787790800.0	-0.000489109319
1400	2.111175	642286589.0	-3.69567773e-05
1400	2.113459	-35270271.4	-2.0694152e-05
1400	2.116174	-49684181.7	-2.02767413e-05
1400	2.119383	-49804440.8	-2.02682611e-05
1400	2.123151	-49392123.9	-2.02665651e-05
1400	2.127548	-48962627.2	-2.0265246e-05
1400	2.132641	-48172353.2	-2.02642095e-05
1400	2.138497	-48172353.2	-2.02629846e-05
1400	2.145175	-47502338.3	-2.02616655e-05
1400	2.152729	-45938970.2	-2.0260629e-05
1400	2.1612	-45629732.6	-2.02599695e-05
1400	2.170614	-44117904.1	-2.02593099e-05
1400	2.180982	-43516608.6	-2.02590743e-05
1400	2.192291	-41970420.4	-2.02591214e-05
1400	2.204508	-40647570.5	-2.02594983e-05
1400	2.217576	-39685497.8	-2.02601108e-05
1400	2.231414	-37761352.5	-2.02611944e-05
1400	2.24592	-36163624.6	-2.02627962e-05
1400	2.260967	-35132832.5	-2.02649633e-05
1400	2.276416	-32865089.7	-2.02676958e-05
1400	2.292111	-31731218.4	-2.0271135e-05
1400	2.307889	-29703993.8	-2.02753279e-05
1400	2.323584	-28467043.2	-2.02802747e-05
1400	2.339033	-26405458.9	-2.02859752e-05
1400	2.35408	-25305947.3	-2.02921468e-05
1400	2.368586	-24051816.9	-2.02981772e-05
1400	2.382424	-22436909.2	-2.03035008e-05
1400	2.395492	-20615843.0	-2.03072226e-05
1400	2.407709	-19774029.4	-2.03083062e-05
1400	2.419018	-17935783.4	-2.0305291e-05
1400	2.429386	-17008070.5	-2.02975647e-05
1400	2.4388	-16475494.5	-2.02839965e-05
1400	2.447271	-15427522.5	-2.02642095e-05
1400	2.454825	-14276471.3	-2.02387691e-05
1400	2.461503	-13657996.0	-2.0207958e-05
1400	2.467359	-12970801.2	-2.01730953e-05
1400	2.472452	-12936441.5	-2.01352173e-05
1400	2.476849	-11957189.0	-2.00962088e-05
1400	2.480617	-11373073.4	-2.00564464e-05
1400	2.483826	-9259949.49	-1.99788061e-05
1400	2.486541	68101001.4	-1.77720882e-05
1400	2.488825	3604439630.0	6.70442736e-05
1400	2.490736	119065186000.0	0.00242445633
1400	2.492328	2793601970000.0	0.0490447431
1400	2.49365	46741644100000.0	0.706838102
1400	2.494742	561254454000000.0	7.38216636
1400	2.495642	4894419200000000.0	56.7678901
1400	2.496383	3.15563246e+16	328.237139
1400	2.496992	1.5396704e+17	1463.41524
1400	2.497492	5.8402164e+17	5170.91143
1400	2.497902	1.77096094e+18	14885.8071
1400	2.498239	4.40741776e+18	35834.2778
1400	2.498517	9.21680896e+18	73870.1703
1400	2.498746	1.65481986e+19	133254.949
1400	2.498936	2.60533893e+19	214610.708
1400	2.499095	3.67534311e+19	314437.663
1400	2.499227	4.74684231e+19	426463.968
1400	2.499338	5.72652505e+19	543800.014
1400	2.499433	6.56510767e+19	660648.031
1400	2.499514	7.25195406e+19	773038.199
1400	2.499584	7.79980449e+19	878779.265
1400	2.499645	8.23105035e+19	977043.427
1400	2.499698	8.56927073e+19	1067899.52
1400	2.499747	8.83531066e+19	1151936.74
1400	2.49979	9.04610162e+19	1230008.32
1400	2.49983	9.21479123e+19	1303076.43
1400	2.499867	9.35134853e+19	1372129.57
1400	2.499902	9.46324533e+19	1438147.53
1400	2.499935	9.55605706e+19	1502096.98
1400	2.499968	9.63394138e+19	1564947.55
1400	2.5	9.7e+19	1627489.16
