Notch position (nm)	Depth (microm)	rho (cm^-3)	E (V.cm^-1)
1300	0.0	-4499980660000000.0	4497.62352
1300	0.0001	-4492062280000000.0	4489.4958
1300	0.000201	-4484077560000000.0	4481.30112
1300	0.000305	-4475883880000000.0	4472.90068
1300	0.000413	-4467335370000000.0	4464.14584
1300	0.000528	-4458275330000000.0	4454.87753
1300	0.000651	-4448528480000000.0	4444.91856
1300	0.000786	-4437892780000000.0	4434.06548
1300	0.000936	-4426130060000000.0	4422.07938
1300	0.001103	-4412955130000000.0	4408.67543
1300	0.001293	-4398022840000000.0	4393.5105
1300	0.001512	-4380912520000000.0	4376.16863
1300	0.001765	-4361109330000000.0	4356.14387
1300	0.002061	-4337981980000000.0	4332.82045
1300	0.002411	-4310756430000000.0	4305.44996
1300	0.002827	-4278485130000000.0	4273.12615
1300	0.003325	-4240012230000000.0	4234.758
1300	0.003924	-4193935180000000.0	4189.04307
1300	0.004648	-4138564790000000.0	4134.44418
1300	0.005527	-4071887240000000.0	4069.17468
1300	0.006596	-3991534420000000.0	3991.19996
1300	0.007899	-3894772950000000.0	3898.26663
1300	0.009488	-3778528120000000.0	3787.97428
1300	0.011426	-3639466690000000.0	3657.90899
1300	0.013788	-3474171890000000.0	3505.85979
1300	0.016664	-3279452750000000.0	3330.13769
1300	0.020158	-3052832840000000.0	3130.00621
1300	0.024389	-2793250310000000.0	2906.20799
1300	0.029497	-2501954690000000.0	2661.52746
1300	0.035637	-2183487600000000.0	2401.26532
1300	0.042983	-1846481030000000.0	2133.42955
1300	0.051727	-1503840150000000.0	1868.40899
1300	0.062074	-1171821240000000.0	1617.94809
1300	0.074242	-867741532000000.0	1393.43936
1300	0.088454	-606648178000000.0	1203.87256
1300	0.104935	-398004270000000.0	1054.07905
1300	0.123902	-243779486000000.0	943.954213
1300	0.145557	-138826235000000.0	869.000922
1300	0.170073	-73285170100000.0	821.956077
1300	0.197589	-35798497000000.0	794.80186
1300	0.228194	-16173741900000.0	780.411698
1300	0.261922	-6764361250000.0	773.412733
1300	0.298736	-2624335600000.0	770.285798
1300	0.33853	-946884559000.0	769.000144
1300	0.381117	-317666016000.0	768.512944
1300	0.426234	-97450779000.0	768.343509
1300	0.473541	-24597279000.0	768.291275
1300	0.522631	-1139201110.0	768.279846
1300	0.573038	6848972240.0	768.28245
1300	0.624255	10371295900.0	768.290431
1300	0.675745	12837690600.0	768.301244
1300	0.726962	15334321500.0	768.314302
1300	0.777369	18407479500.0	768.329695
1300	0.826459	22937282700.0	768.348064
1300	0.873766	31372926400.0	768.371317
1300	0.918883	50717122400.0	768.404834
1300	0.96147	99649693900.0	768.462781
1300	1.001264	223838402000.0	768.579253
1300	1.038078	524452580000.0	768.82849
1300	1.071806	1202777790000.0	769.355528
1300	1.102411	2615503050000.0	770.412758
1300	1.129927	5320808460000.0	772.388364
1300	1.154443	10082209400000.0	775.804666
1300	1.176098	17798387100000.0	781.266553
1300	1.195065	29351728000000.0	789.357144
1300	1.211546	45408157200000.0	800.503845
1300	1.225758	66232525600000.0	814.857844
1300	1.237926	91585383800000.0	832.229962
1300	1.248273	120736182000000.0	852.104778
1300	1.257017	152583279000000.0	873.725186
1300	1.264363	185836584000000.0	896.216919
1300	1.270503	219207668000000.0	918.715909
1300	1.275611	251563111000000.0	940.469264
1300	1.279842	282018702000000.0	960.895709
1300	1.283336	309973366000000.0	979.605584
1300	1.286212	335095645000000.0	996.389594
1300	1.288574	357280812000000.0	1011.18867
1300	1.290512	376595554000000.0	1024.05628
1300	1.292101	393222664000000.0	1035.12128
1300	1.293404	407413117000000.0	1044.55609
1300	1.294473	419448607000000.0	1052.55199
1300	1.295352	429614791000000.0	1059.30167
1300	1.296076	438183871000000.0	1064.98794
1300	1.296675	445404551000000.0	1069.7773
1300	1.297173	451497343000000.0	1073.81703
1300	1.297589	456653498000000.0	1077.23467
1300	1.297939	461036193000000.0	1080.13887
1300	1.298235	464782975000000.0	1082.62111
1300	1.298488	468008779000000.0	1084.75779
1300	1.298707	470809088000000.0	1086.61233
1300	1.298897	473262976000000.0	1088.23721
1300	1.299064	475435891000000.0	1089.67586
1300	1.299214	477382127000000.0	1090.96428
1300	1.299349	479146975000000.0	1092.1325
1300	1.299472	480768595000000.0	1093.20581
1300	1.299587	482279620000000.0	1094.20583
1300	1.299695	483708588000000.0	1095.15147
1300	1.299799	485081224000000.0	1096.05976
1300	1.2999	486421669000000.0	1096.94669
1300	1.3	487753732000000.0	1097.8268
1300	1.3	487767026000000.0	1097.8286
1300	1.3001	486435038000000.0	1098.70874
1300	1.300201	485096574000000.0	1099.59442
1300	1.300304	483731626000000.0	1100.4977
1300	1.300411	482320076000000.0	1101.4319
1300	1.300523	480840756000000.0	1102.41102
1300	1.300643	479270544000000.0	1103.45039
1300	1.300772	477583444000000.0	1104.56724
1300	1.300913	475749600000000.0	1105.78134
1300	1.301068	473734207000000.0	1107.11579
1300	1.301241	471496281000000.0	1108.59775
1300	1.301437	468987282000000.0	1110.25944
1300	1.301659	466149559000000.0	1112.13913
1300	1.301914	462914633000000.0	1114.28228
1300	1.302209	459201347000000.0	1116.74282
1300	1.302552	454913953000000.0	1119.58442
1300	1.302955	449940257000000.0	1122.88174
1300	1.30343	444150027000000.0	1126.72155
1300	1.303992	437393977000000.0	1131.20343
1300	1.304659	429503741000000.0	1136.43988
1300	1.305455	420293430000000.0	1142.55538
1300	1.306404	409563511000000.0	1149.68394
1300	1.307539	397107850000000.0	1157.96454
1300	1.308895	382724858000000.0	1167.53389
1300	1.310516	366233526000000.0	1178.51589
1300	1.312451	347494780000000.0	1191.00752
1300	1.314756	326437852000000.0	1205.06125
1300	1.317496	303090144000000.0	1220.6649
1300	1.320742	277607435000000.0	1237.72096
1300	1.324576	250299395000000.0	1256.02867
1300	1.329083	221643741000000.0	1275.27313
1300	1.334358	192281614000000.0	1295.0266
1300	1.3405	162987885000000.0	1314.76613
1300	1.34761	134613594000000.0	1333.90969
1300	1.355792	108003693000000.0	1351.86861
1300	1.365147	83900454200000.0	1368.10905
1300	1.375769	62848883500000.0	1382.21046
1300	1.387742	45122289200000.0	1393.90627
1300	1.401139	30681048800000.0	1403.0931
1300	1.416009	19164965500000.0	1409.79887
1300	1.432382	9900570900000.0	1414.10416
1300	1.450259	1880927450000.0	1416.00954
1300	1.46961	-6355386850000.0	1415.22624
1300	1.490372	-17069259800000.0	1410.8264
1300	1.512448	-34110198100000.0	1400.60486
1300	1.535708	-64564706100000.0	1379.84145
1300	1.559986	-122040540000000.0	1338.85465
1300	1.585092	-232918295000000.0	1258.23594
1300	1.610806	-447332740000000.0	1099.98823
1300	1.636893	-855221851000000.0	792.576178
1300	1.663107	-1598746970000000.0	210.632
1300	1.689194	-2845102530000000.0	-838.147747
1300	1.714908	-4649726500000000.0	-2581.6798
1300	1.740014	-6725363690000000.0	-5165.20489
1300	1.764292	-8462945950000000.0	-8501.23215
1300	1.787552	-9462744430000000.0	-12273.1992
1300	1.809628	-9857550970000000.0	-16131.8415
1300	1.83039	-9969784940000000.0	-19856.0053
1300	1.849741	-9994464780000000.0	-23350.9836
1300	1.867618	-9999005450000000.0	-26584.4571
1300	1.883991	-9999770690000000.0	-29546.7401
1300	1.898861	-9999914740000000.0	-32237.2908
1300	1.912258	-9999989800000000.0	-34661.136
1300	1.924231	-1.00002054e+16	-36827.624
1300	1.934853	-1.00011227e+16	-38749.5868
1300	1.944208	-1.00047802e+16	-40442.643
1300	1.95239	-1.00176012e+16	-41924.7308
1300	1.9595	-1.00566492e+16	-43216.0295
1300	1.965642	-1.01599536e+16	-44339.3052
1300	1.970917	-1.03985308e+16	-45320.3998
1300	1.975424	-1.0883465e+16	-46188.2112
1300	1.979258	-1.17599602e+16	-46973.4701
1300	1.982504	-1.31849694e+16	-47706.1277
1300	1.985244	-1.52938639e+16	-48411.9871
1300	1.987549	-1.81681589e+16	-49109.7487
1300	1.989484	-2.1815877e+16	-49809.5066
1300	1.991105	-2.61698691e+16	-50513.0756
1300	1.992461	-3.11020666e+16	-51215.8081
1300	1.993596	-3.64470646e+16	-51909.1534
1300	1.994545	-4.20275793e+16	-52583.2009
1300	1.995341	-4.7676083e+16	-53228.6887
1300	1.996008	-5.32496505e+16	-53838.2688
1300	1.99657	-5.86375375e+16	-54407.0629
1300	1.997045	-6.37626471e+16	-54932.6783
1300	1.997448	-6.85787655e+16	-55414.8882
1300	1.997791	-7.30654672e+16	-55855.157
1300	1.998086	-7.72222233e+16	-56256.1392
1300	1.998341	-8.10627416e+16	-56621.2315
1300	1.998563	-8.46101105e+16	-56954.2104
1300	1.998759	-8.78929658e+16	-57258.966
1300	1.998932	-9.09426807e+16	-57539.322
1300	1.999087	-9.37914596e+16	-57798.9285
1300	1.999228	-9.64711748e+16	-58041.2102
1300	1.999357	-9.90127854e+16	-58269.3562
1300	1.999477	-1.01446203e+17	-58486.3412
1300	1.999589	-1.03800507e+17	-58694.9678
1300	1.999696	-1.06104446e+17	-58897.9293
1300	1.999799	-1.0838722e+17	-59097.8883
1300	1.9999	-1.10679554e+17	-59297.5776
1300	2.0	-1.13015164e+17	-59497.8148
1300	2.0	9.99985865e+16	-59499.3993
1300	2.0001	9.99985608e+16	-59318.4667
1300	2.0002	9.99985346e+16	-59137.0362
1300	2.000301	9.99985076e+16	-58954.1381
1300	2.000404	9.99984797e+16	-58768.8227
1300	2.000508	9.99984508e+16	-58580.1363
1300	2.000615	9.99984206e+16	-58387.1008
1300	2.000724	9.99983889e+16	-58188.6942
1300	2.000838	9.99983555e+16	-57983.8326
1300	2.000955	9.99983202e+16	-57771.3534
1300	2.001077	9.99982825e+16	-57549.9982
1300	2.001205	9.99982422e+16	-57318.3961
1300	2.00134	9.99981988e+16	-57075.0474
1300	2.001482	9.99981519e+16	-56818.3074
1300	2.001632	9.99981008e+16	-56546.3702
1300	2.001792	9.9998045e+16	-56257.2534
1300	2.001962	9.99979837e+16	-55948.7833
1300	2.002145	9.9997916e+16	-55618.5821
1300	2.002341	9.99978408e+16	-55264.0564
1300	2.002552	9.99977569e+16	-54882.3883
1300	2.002779	9.99976629e+16	-54470.5304
1300	2.003026	9.99975571e+16	-54025.2047
1300	2.003292	9.99974374e+16	-53542.9067
1300	2.003581	9.99973014e+16	-53019.9159
1300	2.003895	9.99971463e+16	-52452.3142
1300	2.004236	9.99969686e+16	-51836.011
1300	2.004605	9.99967644e+16	-51166.7798
1300	2.005007	9.99965288e+16	-50440.3027
1300	2.005443	9.99962561e+16	-49652.2271
1300	2.005915	9.99959397e+16	-48798.2322
1300	2.006425	9.99955716e+16	-47874.1064
1300	2.006977	9.99951425e+16	-46875.8355
1300	2.007572	9.99946416e+16	-45799.6983
1300	2.008212	9.99940565e+16	-44642.3713
1300	2.008898	9.99933732e+16	-43401.0368
1300	2.009631	9.99925758e+16	-42073.4942
1300	2.010414	9.99916472e+16	-40658.2698
1300	2.011245	9.99905694e+16	-39154.7214
1300	2.012124	9.99893242e+16	-37563.1342
1300	2.013052	9.99878944e+16	-35884.8032
1300	2.014026	9.99862653e+16	-34122.098
1300	2.015046	9.99844269e+16	-32278.5065
1300	2.016107	9.9982376e+16	-30358.6533
1300	2.017207	9.99801192e+16	-28368.2907
1300	2.018342	9.99776746e+16	-26314.2605
1300	2.019509	9.99750745e+16	-24204.4256
1300	2.020701	9.99723656e+16	-22047.5722
1300	2.021914	9.99696092e+16	-19853.2842
1300	2.023142	9.99668781e+16	-17631.793
1300	2.02438	9.99642536e+16	-15393.8074
1300	2.02562	9.99618189e+16	-13150.3276
1300	2.026858	9.99596537e+16	-10912.4501
1300	2.028086	9.99578268e+16	-8691.17016
1300	2.029299	9.9956391e+16	-6497.18674
1300	2.030491	9.9955379e+16	-4340.71812
1300	2.031658	9.99548012e+16	-2231.33243
1300	2.032793	9.99546469e+16	-177.798864
1300	2.033893	9.99548864e+16	1812.03658
1300	2.034954	9.99554752e+16	3731.34793
1300	2.035974	9.99563592e+16	5574.39679
1300	2.036948	9.99574792e+16	7336.57025
1300	2.037876	9.99587759e+16	9014.38963
1300	2.038755	9.99601931e+16	10605.492
1300	2.039586	9.99616803e+16	12108.5867
1300	2.040369	9.99631944e+16	13523.3911
1300	2.041102	9.99647002e+16	14850.5483
1300	2.041788	9.99661701e+16	16091.5317
1300	2.042428	9.99675837e+16	17248.5408
1300	2.043023	9.9968927e+16	18324.3913
1300	2.043575	9.99701911e+16	19322.4047
1300	2.044085	9.99713716e+16	20246.2996
1300	2.044557	9.99724671e+16	21100.0881
1300	2.044993	9.99734789e+16	21887.9791
1300	2.045395	9.997441e+16	22614.2913
1300	2.045764	9.99752646e+16	23283.3751
1300	2.046105	9.99760476e+16	23899.5463
1300	2.046419	9.99767643e+16	24467.0299
1300	2.046708	9.99774202e+16	24989.9146
1300	2.046974	9.99780207e+16	25472.1172
1300	2.047221	9.9978571e+16	25917.3569
1300	2.047448	9.99790761e+16	26329.137
1300	2.047659	9.99795406e+16	26710.7346
1300	2.047855	9.99799689e+16	27065.196
1300	2.048038	9.99803647e+16	27395.3385
1300	2.048208	9.99807318e+16	27703.7547
1300	2.048368	9.99810734e+16	27992.8219
1300	2.048518	9.99813925e+16	28264.7131
1300	2.04866	9.99816917e+16	28521.4104
1300	2.048795	9.99819734e+16	28764.7192
1300	2.048923	9.99822397e+16	28996.2839
1300	2.049045	9.99824926e+16	29217.6038
1300	2.049162	9.99827339e+16	29430.0496
1300	2.049276	9.99829651e+16	29634.8794
1300	2.049385	9.99831876e+16	29833.2556
1300	2.049492	9.99834028e+16	30026.2619
1300	2.049596	9.99836118e+16	30214.92
1300	2.049699	9.99838159e+16	30400.208
1300	2.0498	9.99840161e+16	30583.0794
1300	2.0499	9.99842136e+16	30764.4838
1300	2.05	9.99844092e+16	30945.3904
1300	2.05	-2.42522562e+17	34380.3857
1300	2.0501	-2.38037092e+17	33901.8381
1300	2.0502	-2.33660157e+17	33426.3851
1300	2.050301	-2.29365968e+17	32955.8971
1300	2.050404	-2.25131708e+17	32487.971
1300	2.050508	-2.20936793e+17	32020.3692
1300	2.050615	-2.1676232e+17	31550.9648
1300	2.050724	-2.12590652e+17	31077.699
1300	2.050838	-2.08405114e+17	30598.5476
1300	2.050955	-2.04189776e+17	30111.496
1300	2.051077	-1.99929327e+17	29614.5216
1300	2.051205	-1.95609014e+17	29105.5821
1300	2.05134	-1.91214653e+17	28582.6116
1300	2.051482	-1.86732711e+17	28043.5229
1300	2.051632	-1.82150455e+17	27486.2177
1300	2.051792	-1.77456173e+17	26908.6047
1300	2.051962	-1.72639457e+17	26308.626
1300	2.052145	-1.67691556e+17	25684.2926
1300	2.052341	-1.62605783e+17	25033.7293
1300	2.052552	-1.57377967e+17	24355.2278
1300	2.052779	-1.52006935e+17	23647.3082
1300	2.053026	-1.46495001e+17	22908.7872
1300	2.053292	-1.4084842e+17	22138.8504
1300	2.053581	-1.35077794e+17	21337.1246
1300	2.053895	-1.29198371e+17	20503.748
1300	2.054236	-1.23230217e+17	19639.4307
1300	2.054605	-1.17198202e+17	18745.5016
1300	2.055007	-1.11131805e+17	17823.9345
1300	2.055443	-1.05064698e+17	16877.3493
1300	2.055915	-9.9034123e+16	15908.9817
1300	2.056425	-9.30800866e+16	14922.6193
1300	2.056977	-8.72444106e+16	13922.5023
1300	2.057572	-8.15696961e+16	12913.1889
1300	2.058212	-7.6098275e+16	11899.3905
1300	2.058898	-7.08712223e+16	10885.7806
1300	2.059631	-6.59275051e+16	9876.78679
1300	2.060414	-6.13033297e+16	8876.37353
1300	2.061245	-5.70317375e+16	7887.82728
1300	2.062124	-5.31424781e+16	6913.55227
1300	2.063052	-4.96621691e+16	5954.88625
1300	2.064026	-4.66147365e+16	5011.94331
1300	2.065046	-4.40221133e+16	4083.48879
1300	2.066107	-4.19051657e+16	3166.84906
1300	2.067207	-4.02848147e+16	2257.85714
1300	2.068342	-3.91833183e+16	1350.83271
1300	2.069509	-3.86256894e+16	438.5941
1300	2.070701	-3.86412281e+16	-487.501573
1300	2.071914	-3.92651615e+16	-1437.49419
1300	2.073142	-4.05403911e+16	-2422.73667
1300	2.07438	-4.25193636e+16	-3455.79535
1300	2.07562	-4.5266089e+16	-4550.33822
1300	2.076858	-4.88583416e+16	-5721.01421
1300	2.078086	-5.33900897e+16	-6983.32611
1300	2.079299	-5.8974204e+16	-8353.49933
1300	2.080491	-6.57455006e+16	-9848.34839
1300	2.081658	-7.38641737e+16	-11485.1426
1300	2.082793	-8.35196656e+16	-13281.4726
1300	2.083893	-9.49350133e+16	-15255.1178
1300	2.084954	-1.08371691e+17	-17423.9169
1300	2.085974	-1.24134945e+17	-19805.6395
1300	2.086948	-1.42579582e+17	-22417.8608
1300	2.087876	-1.64116144e+17	-25277.8363
1300	2.088755	-1.89217357e+17	-28402.3786
1300	2.089586	-2.18424709e+17	-31807.7346
1300	2.090369	-2.52354973e+17	-35509.4649
1300	2.091102	-2.91706506e+17	-39522.3289
1300	2.091788	-3.37265121e+17	-43860.1804
1300	2.092428	-3.89909433e+17	-48535.8821
1300	2.093023	-4.50615624e+17	-53561.2512
1300	2.093575	-5.20461746e+17	-58947.0476
1300	2.094085	-6.00631879e+17	-64703.0222
1300	2.094557	-6.92420699e+17	-70838.0415
1300	2.094993	-7.9723932e+17	-77360.3031
1300	2.095395	-9.16623581e+17	-84277.6579
1300	2.095764	-1.0522463e+18	-91598.0496
1300	2.096105	-1.2059353e+18	-99330.0793
1300	2.096419	-1.37969948e+18	-107483.699
1300	2.096708	-1.5757653e+18	-116071.04
1300	2.096974	-1.79662675e+18	-125107.366
1300	2.097221	-2.04511223e+18	-134612.178
1300	2.097448	-2.32447249e+18	-144610.451
1300	2.097659	-2.63849522e+18	-155134.052
1300	2.097855	-2.99165323e+18	-166223.357
1300	2.098038	-3.38929623e+18	-177929.135
1300	2.098208	-3.83789986e+18	-190314.791
1300	2.098368	-4.34539187e+18	-203459.086
1300	2.098518	-4.92158383e+18	-217459.545
1300	2.09866	-5.57875087e+18	-232436.795
1300	2.098795	-6.33242205e+18	-248540.236
1300	2.098923	-7.20247706e+18	-265955.601
1300	2.099045	-8.21469701e+18	-284915.213
1300	2.099162	-9.40300292e+18	-305712.194
1300	2.099276	-1.0812761e+19	-328720.531
1300	2.099385	-1.25057871e+19	-354424.025
1300	2.099492	-1.45681397e+19	-383459.082
1300	2.099596	-1.71226498e+19	-416679.698
1300	2.099699	-2.03498196e+19	-455259.317
1300	2.0998	-2.45242042e+19	-500856.511
1300	2.0999	-3.00810276e+19	-555896.518
1300	2.1	-3.77457996e+19	-616371.139
1300	2.1	6.33750327e+19	-621454.859
1300	2.100032	6.05212797e+19	-582165.665
1300	2.100065	5.76272605e+19	-543469.968
1300	2.100098	5.46599139e+19	-505715.149
1300	2.100133	5.15871369e+19	-468434.444
1300	2.10017	4.83781416e+19	-431254.307
1300	2.10021	4.50045181e+19	-393888.694
1300	2.100253	4.14423284e+19	-356145.357
1300	2.100302	3.76756113e+19	-317943.621
1300	2.100355	3.37016569e+19	-279342.815
1300	2.100416	2.9538197e+19	-240578.748
1300	2.100486	2.52320705e+19	-202101.74
1300	2.100567	2.08677436e+19	-164603.421
1300	2.100662	1.6572277e+19	-129011.793
1300	2.100773	1.25114527e+19	-96428.4822
1300	2.100905	8.8713986e+18	-67986.4363
1300	2.101064	5.82361229e+18	-44629.7662
1300	2.101254	3.48015384e+18	-26862.4719
1300	2.101483	1.85667409e+18	-14561.8216
1300	2.101761	8.6468667e+17	-6964.37132
1300	2.102098	3.42678522e+17	-2870.6672
1300	2.102508	1.12332916e+17	-993.630539
1300	2.103008	2.95525214e+16	-280.828659
1300	2.103617	6053434940000000.0	-62.9633675
1300	2.104358	938779315000000.0	-10.8884032
1300	2.105258	107649888000000.0	-1.41593995
1300	2.10635	8965089540000.0	-0.135596366
1300	2.107672	535769201000.0	-0.00943032588
1300	2.109264	22788392100.0	-0.000488469352
1300	2.111175	643042504.0	-3.63183179e-05
1300	2.113459	-34668976.0	-2.00556926e-05
1300	2.116174	-49065706.4	-1.96380934e-05
1300	2.119383	-49185965.5	-1.96296132e-05
1300	2.123151	-48790828.5	-1.96281999e-05
1300	2.127548	-48979807.0	-1.96266923e-05
1300	2.132641	-48034914.2	-1.96253732e-05
1300	2.138497	-47210280.5	-1.96242425e-05
1300	2.145175	-46660524.7	-1.96231118e-05
1300	2.152729	-45698452.0	-1.96220753e-05
1300	2.1612	-44890998.2	-1.96213216e-05
1300	2.170614	-43379169.7	-1.96208504e-05
1300	2.180982	-42760694.4	-1.96205678e-05
1300	2.192291	-41351945.1	-1.96205207e-05
1300	2.204508	-40424232.2	-1.96208504e-05
1300	2.217576	-39049842.7	-1.96216042e-05
1300	2.231414	-37606733.6	-1.96225936e-05
1300	2.24592	-36404142.8	-1.96242425e-05
1300	2.260967	-34376918.2	-1.96264096e-05
1300	2.276416	-33225867.0	-1.9629095e-05
1300	2.292111	-31112743.1	-1.96324871e-05
1300	2.307889	-29566554.9	-1.96367271e-05
1300	2.323584	-27848567.9	-1.9641721e-05
1300	2.339033	-25924422.6	-1.96474215e-05
1300	2.35408	-24824911.0	-1.9653546e-05
1300	2.368586	-23072564.3	-1.96595292e-05
1300	2.382424	-22076131.9	-1.96649942e-05
1300	2.395492	-20753282.0	-1.96686689e-05
1300	2.407709	-19516331.4	-1.96696112e-05
1300	2.419018	-17935783.4	-1.96667374e-05
1300	2.429386	-16527034.2	-1.96588226e-05
1300	2.4388	-15616501.1	-1.96453486e-05
1300	2.447271	-15049565.4	-1.96257501e-05
1300	2.454825	-14276471.3	-1.96001212e-05
1300	2.461503	-13176959.7	-1.95693101e-05
1300	2.467359	-12970801.2	-1.95344473e-05
1300	2.472452	-12094627.9	-1.94967579e-05
1300	2.476849	-11458972.7	-1.94577493e-05
1300	2.480617	-11252814.3	-1.94179869e-05
1300	2.483826	-9208409.88	-1.93403466e-05
1300	2.486541	67997922.2	-1.71332518e-05
1300	2.488825	3605040930.0	6.76827331e-05
1300	2.490736	119065444000.0	0.00242509517
1300	2.492328	2793602330000.0	0.0490453819
1300	2.49365	46741644700000.0	0.706838742
1300	2.494742	561254454000000.0	7.382167
1300	2.495642	4894419200000000.0	56.7678907
1300	2.496383	3.15563246e+16	328.23714
1300	2.496992	1.5396704e+17	1463.41524
1300	2.497492	5.8402164e+17	5170.91143
1300	2.497902	1.77096094e+18	14885.8071
1300	2.498239	4.40741776e+18	35834.2778
1300	2.498517	9.21680896e+18	73870.1703
1300	2.498746	1.65481986e+19	133254.949
1300	2.498936	2.60533893e+19	214610.708
1300	2.499095	3.67534311e+19	314437.663
1300	2.499227	4.74684231e+19	426463.968
1300	2.499338	5.72652505e+19	543800.014
1300	2.499433	6.56510767e+19	660648.031
1300	2.499514	7.25195406e+19	773038.199
1300	2.499584	7.79980449e+19	878779.265
1300	2.499645	8.23105035e+19	977043.427
1300	2.499698	8.56927073e+19	1067899.52
1300	2.499747	8.83531066e+19	1151936.74
1300	2.49979	9.04610162e+19	1230008.32
1300	2.49983	9.21479123e+19	1303076.43
1300	2.499867	9.35134853e+19	1372129.57
1300	2.499902	9.46324533e+19	1438147.53
1300	2.499935	9.55605706e+19	1502096.98
1300	2.499968	9.63394138e+19	1564947.55
1300	2.5	9.7e+19	1627489.16
